START:	 28.300000000000132
END:	 28.400000000000134

r [km]	 vr [km/s]	 np [cm-3]	 T [K]
19754958.0	 342.7783508300781	 428.9007263183594	 189199.109375
19751008.0	 340.34857177734375	 381.36236572265625	 196730.6875
19750262.0	 340.7825012207031	 376.4018859863281	 210718.421875
19750240.0	 342.98895263671875	 353.8439636230469	 190101.59375
19749726.0	 340.5787658691406	 399.3700866699219	 182271.234375
19749608.0	 339.7433166503906	 376.6644592285156	 183233.875
19749164.0	 339.0640563964844	 426.5561218261719	 191074.296875
19748696.0	 335.8178405761719	 379.0367431640625	 183892.34375
19747344.0	 338.5223693847656	 555.6813354492188	 203314.609375
19747320.0	 337.9945068359375	 361.67230224609375	 191531.515625
19747294.0	 342.1617736816406	 440.9476623535156	 204465.390625
19747272.0	 340.8762512207031	 435.5130920410156	 184931.0
19746852.0	 337.64361572265625	 445.55181884765625	 197715.1875
19744680.0	 344.2341003417969	 428.8756103515625	 211283.390625
19744656.0	 343.8813171386719	 404.7286682128906	 205235.4375
19744632.0	 340.5141296386719	 374.49932861328125	 202481.0625
19744608.0	 342.38214111328125	 362.3997802734375	 191475.625
19744586.0	 345.8805236816406	 419.7242736816406	 208470.671875
19744422.0	 342.3490295410156	 549.653564453125	 206242.625
19743770.0	 341.6078796386719	 420.1835632324219	 204309.734375
19743744.0	 341.72369384765625	 456.5272521972656	 193589.78125
19743698.0	 342.9967041015625	 480.34033203125	 199980.4375
19743676.0	 341.43634033203125	 469.70709228515625	 194814.390625
19743628.0	 343.4579772949219	 480.15289306640625	 210572.9375
19743582.0	 339.3481140136719	 431.365966796875	 195538.90625
19743302.0	 341.37298583984375	 550.9656372070312	 206190.03125
19742250.0	 347.7340393066406	 372.18548583984375	 229410.3125
19742018.0	 345.4122314453125	 388.2201843261719	 205827.90625
19741760.0	 341.7131042480469	 370.53887939453125	 210300.203125
19741408.0	 340.0328063964844	 370.27777099609375	 192258.140625
19741270.0	 343.8572692871094	 582.0861206054688	 202043.015625
19732234.0	 336.0882568359375	 404.0798034667969	 179942.46875
19732188.0	 340.2865295410156	 527.5321044921875	 179523.765625
19731744.0	 334.9202880859375	 411.081298828125	 190603.953125
19731698.0	 336.14544677734375	 467.2637939453125	 185506.0625
19731676.0	 333.951171875	 422.8165283203125	 196472.8125
19731534.0	 336.3467102050781	 404.2423095703125	 181971.859375
19731486.0	 335.6697692871094	 408.96343994140625	 178943.921875
19731464.0	 332.5705871582031	 513.6044311523438	 211188.171875
19731440.0	 334.94342041015625	 396.5317077636719	 186231.296875
19731394.0	 334.6338806152344	 435.0706481933594	 183830.921875
19731348.0	 334.83294677734375	 384.8826599121094	 192743.984375
19731326.0	 336.3735656738281	 399.4458312988281	 177282.375
19731278.0	 333.7522277832031	 399.5719299316406	 200274.515625
19730974.0	 335.59295654296875	 403.3455810546875	 186965.953125
19730878.0	 333.5501403808594	 387.2839050292969	 190952.640625
19730856.0	 332.08087158203125	 472.9012451171875	 187850.078125
19730810.0	 334.8790588378906	 413.26141357421875	 183640.046875
19730740.0	 334.10693359375	 388.95654296875	 186244.671875
19730718.0	 332.23101806640625	 588.286376953125	 201027.3125
19730646.0	 336.8818359375	 552.0428466796875	 190627.53125
19730576.0	 336.39501953125	 387.1772766113281	 195476.453125
19730508.0	 334.1681213378906	 383.944091796875	 182884.125
19730414.0	 335.54034423828125	 399.86981201171875	 177252.1875
19730390.0	 335.2276306152344	 483.8440246582031	 197996.53125
19730368.0	 333.1338195800781	 501.199951171875	 185275.125
19730322.0	 333.91619873046875	 463.7021789550781	 182403.078125
19729808.0	 334.34234619140625	 403.77374267578125	 185750.578125
19729714.0	 332.27764892578125	 422.79986572265625	 196203.859375
19729550.0	 334.41400146484375	 626.020263671875	 184247.5625
19729526.0	 334.9368896484375	 409.3941345214844	 195241.453125
19729340.0	 335.181396484375	 430.593994140625	 189775.703125
19728244.0	 334.3730773925781	 481.42340087890625	 187283.34375
19728008.0	 336.8428039550781	 349.1477966308594	 174255.765625
19727894.0	 336.7742919921875	 399.4325866699219	 184462.8125
19727870.0	 335.2102355957031	 416.94024658203125	 195293.171875
19727846.0	 334.00115966796875	 485.169677734375	 195092.203125
19727706.0	 335.9359130859375	 424.04742431640625	 178786.21875
19727658.0	 335.3699645996094	 504.1044616699219	 189100.71875
19713356.0	 339.1944274902344	 416.1164245605469	 181137.0
19708362.0	 337.66156005859375	 369.9223937988281	 186816.875
19708340.0	 337.19781494140625	 412.5992736816406	 194717.4375
19708316.0	 336.5597839355469	 367.287841796875	 199189.453125
19708128.0	 336.3289489746094	 363.7857666015625	 198073.328125
19708106.0	 337.1104736328125	 370.58367919921875	 188707.25
19708082.0	 336.8167419433594	 423.65008544921875	 185415.6875
19708060.0	 337.8652038574219	 380.76873779296875	 183575.46875
19708036.0	 337.27001953125	 365.3807373046875	 203633.203125
19707802.0	 337.26300048828125	 425.8214416503906	 200159.328125
19707710.0	 338.5757751464844	 359.29620361328125	 189301.796875
19707594.0	 338.58258056640625	 362.5797119140625	 190628.8125
19707546.0	 337.972900390625	 385.96197509765625	 196681.984375
19707010.0	 337.0017395019531	 383.57733154296875	 187476.515625
19706894.0	 337.5119323730469	 409.9450378417969	 192989.09375
19706638.0	 336.75506591796875	 461.57647705078125	 185989.40625
19706614.0	 336.9862365722656	 362.4163513183594	 187906.0625
19706566.0	 338.8466491699219	 387.2154846191406	 183470.5
19706520.0	 335.9136962890625	 381.71636962890625	 195786.0625
19706428.0	 335.58544921875	 358.0895080566406	 186275.46875
19706334.0	 335.6923828125	 377.5755920410156	 187966.09375
19706310.0	 337.12152099609375	 394.8709716796875	 188345.734375
19706172.0	 335.5165100097656	 365.7593994140625	 195575.015625
19706146.0	 335.5416564941406	 433.28521728515625	 195185.0625
19706100.0	 336.45343017578125	 388.7950134277344	 187537.390625
19706076.0	 335.687255859375	 418.3559265136719	 185499.046875
19706054.0	 335.7097473144531	 417.4287109375	 180945.703125
19706030.0	 334.9246520996094	 432.43896484375	 191273.078125
19706008.0	 333.8848876953125	 447.8013916015625	 200530.890625
19705984.0	 334.60736083984375	 381.8508605957031	 196530.640625
19705798.0	 334.66998291015625	 543.978515625	 192871.375
19705774.0	 336.6501159667969	 386.2020263671875	 182612.265625
19705750.0	 335.912353515625	 354.7132263183594	 184833.0625
19705728.0	 336.9684753417969	 365.38800048828125	 178842.4375
19705704.0	 334.7403869628906	 365.7408447265625	 196161.875
19705566.0	 336.9930114746094	 353.3724365234375	 182476.5
19705518.0	 334.0946044921875	 392.9383239746094	 190155.265625
19705494.0	 335.2413024902344	 436.4526062011719	 184259.125
19705472.0	 334.78302001953125	 417.10400390625	 192270.65625
19705332.0	 333.64837646484375	 394.4266662597656	 187181.453125
19705308.0	 334.41851806640625	 372.3305358886719	 186698.34375
19705284.0	 333.8565673828125	 377.68963623046875	 196873.328125
19705260.0	 335.24847412109375	 431.4623107910156	 186531.3125
19705238.0	 335.6395568847656	 449.85858154296875	 186118.171875
19705214.0	 335.0937805175781	 370.5438232421875	 188438.53125
19705192.0	 336.1574401855469	 346.81231689453125	 188161.078125
19705096.0	 334.8128967285156	 422.5263671875	 188843.28125
19705074.0	 334.4979248046875	 420.96435546875	 191364.421875
19705052.0	 335.8741149902344	 373.3083190917969	 189481.4375
19705028.0	 333.9409484863281	 390.48248291015625	 190550.890625
19705004.0	 335.1051025390625	 377.24755859375	 184237.921875
19704982.0	 334.57281494140625	 365.0805969238281	 182824.890625
19704958.0	 333.73260498046875	 360.97576904296875	 187256.109375
19704934.0	 334.2568359375	 453.2596130371094	 185672.625
19704912.0	 332.96051025390625	 415.6283874511719	 193186.15625
19704888.0	 334.20916748046875	 397.65557861328125	 193160.328125
19704794.0	 333.9923400878906	 394.0476989746094	 188809.375
19704770.0	 336.0174560546875	 474.9649658203125	 187856.21875
19704352.0	 339.0083923339844	 482.1846008300781	 187169.8125
19703954.0	 336.4429016113281	 413.343505859375	 186813.21875
19703932.0	 332.7943115234375	 423.7457580566406	 198771.859375
19703860.0	 330.9847106933594	 502.4892578125	 217234.4375
19703838.0	 332.2483215332031	 450.3992919921875	 205010.59375
19703814.0	 335.4859924316406	 528.231689453125	 191837.5625
19703790.0	 333.8108825683594	 586.9618530273438	 210419.203125
19703768.0	 335.9790344238281	 447.24530029296875	 188232.0
19703490.0	 334.51007080078125	 538.1978149414062	 190407.0
19703442.0	 333.67926025390625	 509.8482360839844	 202745.9375
19703350.0	 333.59063720703125	 514.7256469726562	 200384.46875
19703186.0	 335.3545837402344	 475.9969787597656	 193818.703125
19702928.0	 333.4954833984375	 388.660400390625	 197701.484375
19702882.0	 336.81341552734375	 459.427734375	 201511.5625
19702718.0	 337.456298828125	 432.35357666015625	 199366.78125
19702484.0	 336.1860046386719	 457.97857666015625	 198106.859375
19701552.0	 336.97613525390625	 455.3626708984375	 199076.25
19701530.0	 333.9359436035156	 542.6159057617188	 218574.828125
19701390.0	 336.73590087890625	 509.2416076660156	 202647.984375
19701342.0	 337.859619140625	 427.9642333984375	 195713.265625
19701250.0	 334.8207092285156	 579.9569702148438	 204663.0625
19701158.0	 335.2758483886719	 455.7783508300781	 202740.0625
19701088.0	 335.3360595703125	 526.0567626953125	 208917.234375
19700666.0	 336.7069396972656	 443.3349304199219	 196949.265625
19700386.0	 333.3113708496094	 541.37939453125	 200723.265625
19700318.0	 334.2491149902344	 548.107177734375	 200783.375
19700108.0	 336.647705078125	 412.0769348144531	 192993.140625
19700060.0	 337.12982177734375	 459.1565856933594	 194361.71875
19700038.0	 336.0865478515625	 412.3936767578125	 198488.09375
19700014.0	 335.3408203125	 408.92547607421875	 197503.71875
19699992.0	 337.58978271484375	 384.8247375488281	 199566.765625
19699944.0	 336.799560546875	 472.6764221191406	 199136.5
19699920.0	 336.0470886230469	 450.83441162109375	 196129.953125
19699896.0	 336.5404357910156	 540.6466674804688	 204379.90625
19699874.0	 337.2102355957031	 411.3356018066406	 199331.59375
19699338.0	 336.85626220703125	 548.7542114257812	 196197.3125
19699198.0	 337.03515625	 491.1793212890625	 204158.234375
19698942.0	 332.688720703125	 517.4634399414062	 213879.78125
19698894.0	 335.1589050292969	 524.93896484375	 199303.28125
19698616.0	 334.16180419921875	 447.1372375488281	 206591.484375
19698546.0	 333.6722717285156	 498.9460144042969	 192900.703125
19697310.0	 332.6175842285156	 593.83740234375	 208895.578125
19697076.0	 334.8108215332031	 519.6834716796875	 198079.1875
19696330.0	 333.08148193359375	 449.4178161621094	 196041.765625
19696282.0	 333.68548583984375	 546.7766723632812	 199832.53125
19696166.0	 337.25421142578125	 548.3894653320312	 198249.8125
19696052.0	 331.2405700683594	 389.3729553222656	 196504.203125
19695770.0	 332.57708740234375	 465.7372741699219	 207674.21875
19695702.0	 332.9267578125	 553.4642944335938	 199386.25
19695654.0	 332.303466796875	 461.6104431152344	 200718.203125
19695046.0	 334.7029724121094	 581.2869873046875	 204376.953125
19694768.0	 333.80706787109375	 415.63177490234375	 197389.921875
19694720.0	 332.6866149902344	 430.3356628417969	 185170.046875
19694674.0	 335.3168029785156	 505.0389404296875	 205117.921875
19694650.0	 335.74444580078125	 499.9848937988281	 208902.28125
19694604.0	 334.0016784667969	 528.8775024414062	 201434.390625
19694582.0	 334.6921081542969	 462.37249755859375	 206106.390625
19694512.0	 334.06494140625	 413.9214782714844	 190136.796875
19694394.0	 333.1377868652344	 406.91259765625	 195562.75
19694254.0	 334.9012756347656	 532.7904663085938	 203203.390625
19693974.0	 336.1390380859375	 402.5873718261719	 192246.703125
19693742.0	 334.9640808105469	 485.1238098144531	 200842.296875
19693672.0	 334.4027099609375	 368.3197021484375	 196276.25
19693368.0	 335.4849853515625	 528.0487670898438	 193847.140625
19691970.0	 334.639404296875	 560.5479125976562	 197936.0625
19690736.0	 335.8296203613281	 524.9346923828125	 212046.875
19690174.0	 336.4070739746094	 541.3684692382812	 218000.703125
19689778.0	 333.57672119140625	 412.1484375	 200777.421875
19689732.0	 332.0818786621094	 454.1926574707031	 201092.765625
19689710.0	 332.1304626464844	 444.10333251953125	 201081.921875
19689544.0	 334.4254455566406	 453.0999450683594	 193880.421875
19689174.0	 332.3848876953125	 511.6280212402344	 198309.59375
19689150.0	 333.0465393066406	 577.2974853515625	 199097.15625
19689128.0	 332.721435546875	 465.3900146484375	 188613.921875
19689102.0	 331.9147644042969	 437.6352844238281	 212075.296875
19689080.0	 331.1639404296875	 394.39739990234375	 196597.03125
19689056.0	 332.64459228515625	 451.22900390625	 202921.453125
19689010.0	 331.4860534667969	 369.15478515625	 188513.703125
19688986.0	 332.7655334472656	 429.9237060546875	 197079.171875
19688964.0	 333.5579833984375	 388.84442138671875	 195841.609375
19688940.0	 332.9393005371094	 386.6967468261719	 185760.65625
19688894.0	 334.2841796875	 475.3454284667969	 188605.921875
19688848.0	 333.63250732421875	 382.87542724609375	 188715.84375
19688800.0	 331.3804931640625	 470.0035705566406	 200517.015625
19688730.0	 331.9580993652344	 540.6504516601562	 198741.59375
19688614.0	 330.3116455078125	 369.6151123046875	 197082.78125
19688590.0	 338.039794921875	 463.2986145019531	 197519.3125
19757874.0	 430.2394104003906	 136.98915100097656	 255668.328125
19757844.0	 429.8581237792969	 140.79347229003906	 262672.0
19757814.0	 432.2381896972656	 121.65328216552734	 256682.796875
19757784.0	 427.733154296875	 136.83876037597656	 232880.484375
19757754.0	 430.18035888671875	 139.3306427001953	 267311.34375
19757726.0	 425.8934326171875	 137.3134765625	 274613.125
19757696.0	 420.89892578125	 143.7803192138672	 225489.078125
19757668.0	 413.4220886230469	 145.06822204589844	 199323.515625
19757638.0	 412.1572570800781	 146.59695434570312	 228481.6875
19757610.0	 412.7155456542969	 158.84417724609375	 197157.390625
19757580.0	 421.5215759277344	 152.84434509277344	 211039.078125
19757522.0	 409.89031982421875	 157.23069763183594	 370319.8125
19757494.0	 413.99615478515625	 139.07894897460938	 196194.984375
19757464.0	 410.1230773925781	 145.0742645263672	 216451.71875
19757436.0	 413.5066833496094	 155.227783203125	 193268.515625
19757406.0	 411.9752197265625	 147.92987060546875	 188837.59375
19757376.0	 413.03070068359375	 148.810546875	 193894.328125
19757348.0	 413.7883605957031	 142.3907470703125	 196710.875
19757316.0	 414.880615234375	 143.94253540039062	 195222.171875
19757288.0	 415.39251708984375	 144.0039825439453	 194875.671875
19757258.0	 413.1848449707031	 145.7434844970703	 217741.84375
19757230.0	 411.2490234375	 134.06369018554688	 182431.375
19757202.0	 412.4709167480469	 151.55137634277344	 187042.140625
19757172.0	 411.64996337890625	 147.31155395507812	 180849.09375
19757144.0	 412.45428466796875	 138.448974609375	 181592.984375
19757114.0	 409.19891357421875	 142.83241271972656	 214076.59375
19757084.0	 411.8898010253906	 145.1077117919922	 191783.484375
19757056.0	 411.719482421875	 194.33956909179688	 209742.9375
19757026.0	 414.7333679199219	 155.74050903320312	 205792.375
19756998.0	 413.56280517578125	 164.56492614746094	 239356.515625
19756968.0	 408.86309814453125	 145.61016845703125	 290080.59375
19756910.0	 406.617919921875	 175.12301635742188	 312809.6875
19756880.0	 412.20361328125	 128.13369750976562	 165399.078125
19756852.0	 409.9776611328125	 148.96815490722656	 238134.0625
19756820.0	 413.8268737792969	 142.03807067871094	 224962.6875
19756792.0	 413.1941223144531	 167.23008728027344	 215668.234375
19756764.0	 418.635009765625	 148.78541564941406	 210711.140625
19756734.0	 417.59552001953125	 139.93862915039062	 194711.609375
19756704.0	 413.2682189941406	 141.6269073486328	 202800.34375
19756676.0	 411.9615173339844	 155.59681701660156	 192143.921875
19756646.0	 413.5273132324219	 148.65550231933594	 213150.859375
19756618.0	 417.4537658691406	 142.30250549316406	 202967.28125
19756560.0	 410.467529296875	 166.1092071533203	 232483.125
19756530.0	 410.12652587890625	 147.8456268310547	 206936.25
19756502.0	 414.7286682128906	 160.9920654296875	 204335.40625
19756472.0	 414.61962890625	 155.90695190429688	 216186.0
19756444.0	 417.0265808105469	 137.72262573242188	 191870.9375
19756414.0	 422.4588317871094	 136.72833251953125	 214586.75
19756386.0	 428.095947265625	 155.2086639404297	 273305.9375
19756354.0	 424.4881591796875	 156.82318115234375	 376036.40625
19756324.0	 418.3385925292969	 152.08738708496094	 369964.1875
19756296.0	 427.0066833496094	 130.64344787597656	 244299.8125
19756266.0	 421.8377685546875	 146.97381591796875	 318714.09375
19756238.0	 417.2981872558594	 134.57322692871094	 234401.25
19756208.0	 414.3369445800781	 145.71771240234375	 262688.03125
19756180.0	 407.7989196777344	 151.0498046875	 283532.90625
19756150.0	 414.07208251953125	 142.333984375	 204854.109375
19756120.0	 410.2898254394531	 138.0946044921875	 213117.984375
19756092.0	 414.0448913574219	 141.21128845214844	 205327.484375
19756064.0	 413.68389892578125	 162.2362060546875	 190985.984375
19756034.0	 407.8863220214844	 145.6869659423828	 240219.78125
19756004.0	 415.9385681152344	 149.239990234375	 188544.4375
19755974.0	 408.7257080078125	 138.54086303710938	 218791.46875
19755946.0	 409.705078125	 174.49012756347656	 211373.875
19755918.0	 408.8571472167969	 166.56776428222656	 258923.96875
19755888.0	 412.11041259765625	 141.06044006347656	 204353.40625
19755858.0	 415.01263427734375	 148.37303161621094	 201171.953125
19755828.0	 405.5643310546875	 156.6760711669922	 372406.03125
19755800.0	 410.6443176269531	 175.17388916015625	 283836.75
19755742.0	 414.32598876953125	 137.3107452392578	 208313.1875
19755714.0	 405.243408203125	 176.17742919921875	 297365.8125
19755684.0	 412.14190673828125	 155.8896942138672	 199644.640625
19755654.0	 411.7481384277344	 172.75540161132812	 216698.296875
19755596.0	 413.4266052246094	 158.76608276367188	 198306.46875
19755566.0	 411.7415466308594	 160.2438507080078	 201670.859375
19755538.0	 409.61968994140625	 145.13804626464844	 188281.953125
19755508.0	 409.7817077636719	 162.03323364257812	 200452.8125
19755480.0	 411.050537109375	 152.6381072998047	 216308.625
19755450.0	 403.6685485839844	 172.04689025878906	 299373.59375
19755422.0	 408.7971496582031	 172.18914794921875	 231170.140625
19755390.0	 410.890625	 140.33602905273438	 212807.03125
19755362.0	 409.49127197265625	 252.7504425048828	 228586.140625
19755334.0	 407.0346374511719	 168.7592010498047	 269271.6875
19755304.0	 407.7483825683594	 145.79754638671875	 247112.4375
19755274.0	 405.6626892089844	 142.43927001953125	 398648.15625
19755246.0	 408.9521179199219	 142.8461456298828	 341528.4375
19755216.0	 408.40997314453125	 157.09408569335938	 243159.390625
19755188.0	 399.5632629394531	 157.86038208007812	 391985.0
19755158.0	 413.2632751464844	 173.35354614257812	 204988.46875
19755130.0	 407.6973571777344	 144.81092834472656	 187974.71875
19755100.0	 411.4634704589844	 208.585693359375	 203627.578125
19755072.0	 403.5937805175781	 169.38937377929688	 347139.8125
19755042.0	 412.5280456542969	 151.65594482421875	 191841.671875
19755014.0	 409.3395690917969	 158.72494506835938	 202308.84375
19754984.0	 411.2196350097656	 131.71603393554688	 193054.671875
19754954.0	 411.91021728515625	 159.9285888671875	 184266.859375
19754926.0	 411.3941650390625	 135.19467163085938	 189587.203125
19754894.0	 411.2283630371094	 132.54306030273438	 237149.984375
19754836.0	 400.43328857421875	 171.95071411132812	 314414.8125
19754808.0	 413.59979248046875	 187.6902618408203	 216741.890625
19754778.0	 410.8642578125	 140.86692810058594	 228856.4375
19754750.0	 413.2674865722656	 163.56268310546875	 210907.875
19754720.0	 407.87591552734375	 162.63076782226562	 309756.90625
19754690.0	 410.1888427734375	 149.81582641601562	 207725.984375
19754634.0	 405.8552551269531	 228.39950561523438	 264356.84375
19754604.0	 411.6852722167969	 153.38287353515625	 188823.0
19754574.0	 407.04638671875	 148.9711151123047	 280164.21875
19754546.0	 414.4908752441406	 152.08494567871094	 262929.59375
19754516.0	 407.80133056640625	 146.2335662841797	 378961.9375
19754488.0	 409.0074768066406	 158.1209259033203	 314928.8125
19754458.0	 417.3563537597656	 143.72584533691406	 188963.53125
19754428.0	 409.18646240234375	 159.9332275390625	 280491.71875
19754398.0	 412.03289794921875	 178.00479125976562	 202229.859375
19754370.0	 413.4949035644531	 150.34066772460938	 223605.859375
19754340.0	 412.19964599609375	 150.03639221191406	 198648.53125
19754312.0	 411.5813903808594	 153.38418579101562	 210896.203125
19754284.0	 396.9413146972656	 158.78488159179688	 412652.5
19754254.0	 409.46136474609375	 142.71495056152344	 202636.765625
19754224.0	 410.1890869140625	 149.9883270263672	 173179.375
19754196.0	 411.99066162109375	 141.3336639404297	 200788.53125
19754166.0	 409.35662841796875	 147.51666259765625	 203110.421875
19754138.0	 406.47711181640625	 166.08750915527344	 254464.328125
19754108.0	 408.359619140625	 152.03807067871094	 228796.828125
19754078.0	 410.50457763671875	 133.40625	 204611.921875
19754050.0	 406.20489501953125	 143.6299591064453	 265802.8125
19754020.0	 409.0489196777344	 153.12393188476562	 216117.71875
19753992.0	 411.44757080078125	 148.60775756835938	 219549.859375
19753962.0	 406.06756591796875	 139.49855041503906	 270602.6875
19753932.0	 410.3909606933594	 131.1969757080078	 201175.78125
19753904.0	 412.3013916015625	 148.7414093017578	 180989.625
19753872.0	 406.08294677734375	 154.18130493164062	 250958.0
19753844.0	 409.21124267578125	 146.72972106933594	 210388.25
19753816.0	 405.69610595703125	 158.55174255371094	 293605.59375
19753786.0	 412.1340026855469	 144.3545379638672	 195218.125
19753758.0	 409.475830078125	 127.78118896484375	 174911.046875
19753728.0	 400.31451416015625	 147.98789978027344	 336296.875
19753670.0	 409.9510803222656	 146.6394805908203	 243414.5625
19753642.0	 410.8468322753906	 138.1568603515625	 204977.84375
19753612.0	 412.345947265625	 141.9858856201172	 187825.390625
19753584.0	 413.6231689453125	 149.56246948242188	 200874.75
19753554.0	 408.3190002441406	 150.8033447265625	 276930.90625
19753524.0	 409.6221618652344	 152.50375366210938	 224917.875
19753494.0	 410.50262451171875	 148.88563537597656	 198814.84375
19753464.0	 405.2689514160156	 151.1150665283203	 266288.28125
19753436.0	 407.17333984375	 143.33895874023438	 224441.359375
19753406.0	 408.2059020996094	 140.23146057128906	 195661.1875
19753378.0	 405.63763427734375	 141.9330291748047	 251770.046875
19753348.0	 409.91522216796875	 140.55859375	 207041.40625
19753320.0	 409.5245056152344	 134.10311889648438	 205885.625
19753292.0	 408.71527099609375	 139.6018524169922	 189824.1875
19753262.0	 411.322998046875	 144.152099609375	 226707.171875
19753232.0	 411.8102111816406	 148.1892547607422	 187737.859375
19753204.0	 409.0506591796875	 138.32879638671875	 218916.4375
19753174.0	 410.65240478515625	 146.8658447265625	 200445.4375
19753146.0	 405.4010009765625	 138.08517456054688	 266058.75
19753116.0	 404.0654296875	 139.83236694335938	 390685.375
19753086.0	 414.4144592285156	 137.98580932617188	 234789.890625
19753056.0	 402.1766357421875	 155.72279357910156	 362227.90625
19753026.0	 408.774169921875	 152.95948791503906	 221122.671875
19752968.0	 411.6272277832031	 152.68264770507812	 200259.296875
19752940.0	 406.6445007324219	 185.6382293701172	 255395.40625
19752910.0	 408.856689453125	 155.4673614501953	 191649.4375
19752882.0	 410.85821533203125	 233.29403686523438	 197116.421875
19752852.0	 413.2880859375	 158.22946166992188	 200257.09375
19752824.0	 402.54217529296875	 200.8621368408203	 424060.3125
19752794.0	 410.01763916015625	 136.2801055908203	 214249.09375
19752766.0	 409.2012634277344	 138.3473358154297	 189900.828125
19752706.0	 406.0218811035156	 196.16390991210938	 323918.4375
19752678.0	 406.82257080078125	 150.4558868408203	 210859.3125
19752650.0	 411.347412109375	 140.6877899169922	 182156.8125
19752620.0	 410.2630615234375	 135.47219848632812	 191802.75
19752588.0	 408.0754089355469	 135.9631805419922	 198175.59375
19752560.0	 402.6304626464844	 155.625732421875	 279362.28125
19752532.0	 409.1922302246094	 149.00576782226562	 177576.109375
19752502.0	 409.1852722167969	 136.55593872070312	 177750.546875
19752474.0	 406.12725830078125	 155.71702575683594	 261221.015625
19752442.0	 410.0679931640625	 150.5613555908203	 197309.015625
19752414.0	 406.7801208496094	 157.359130859375	 219239.34375
19752386.0	 410.01025390625	 129.97459411621094	 190946.078125
19752356.0	 406.3621826171875	 152.74436950683594	 217114.734375
19752328.0	 410.180419921875	 154.82015991210938	 199853.1875
19752300.0	 409.23480224609375	 138.4252471923828	 206997.359375
19752270.0	 409.1087646484375	 150.4828643798828	 198972.5625
19752240.0	 409.0086975097656	 154.02830505371094	 211365.515625
19752210.0	 410.1807861328125	 151.63221740722656	 199798.90625
19752182.0	 407.13525390625	 155.09375	 228956.65625
19752154.0	 407.5848693847656	 145.64788818359375	 201123.875
19752122.0	 411.826904296875	 131.87200927734375	 191662.9375
19752092.0	 409.2132263183594	 163.73660278320312	 215592.78125
19752064.0	 402.4115905761719	 151.2586212158203	 311941.875
19752034.0	 409.8321533203125	 134.71836853027344	 177986.1875
19752006.0	 408.76141357421875	 144.07046508789062	 204224.265625
19751976.0	 406.92352294921875	 140.93943786621094	 208058.25
19751948.0	 410.3150634765625	 144.14666748046875	 206201.046875
19751920.0	 404.57733154296875	 151.42019653320312	 250106.40625
19751890.0	 409.5656433105469	 139.3023681640625	 209624.984375
19751860.0	 408.00653076171875	 150.58865356445312	 222470.40625
19751832.0	 412.6214904785156	 155.82518005371094	 187451.953125
19751714.0	 416.9782409667969	 183.70980834960938	 234131.0
19751626.0	 411.56439208984375	 137.91262817382812	 207456.65625
19751598.0	 403.4873046875	 168.91676330566406	 338035.78125
19751568.0	 413.12200927734375	 133.8217315673828	 209823.078125
19751540.0	 411.8485107421875	 154.42478942871094	 205566.0
19751510.0	 410.3685302734375	 170.22476196289062	 222053.234375
19751452.0	 411.4297790527344	 235.54251098632812	 210977.046875
19751424.0	 412.1191101074219	 132.89218139648438	 223181.515625
19751394.0	 407.2015075683594	 157.30052185058594	 328739.96875
19751364.0	 410.3641357421875	 154.95643615722656	 235784.421875
19751306.0	 408.2647399902344	 140.25865173339844	 253464.28125
19751278.0	 409.52362060546875	 125.0444564819336	 214258.171875
19751246.0	 410.5900573730469	 126.70264434814453	 210649.953125
19751218.0	 409.3165588378906	 128.6773681640625	 217187.59375
19751188.0	 412.06292724609375	 134.60922241210938	 228702.421875
19751160.0	 401.589111328125	 161.99049377441406	 328601.4375
19751130.0	 407.95245361328125	 155.04718017578125	 206819.546875
19751102.0	 409.4162292480469	 148.40826416015625	 197060.859375
19751072.0	 409.33441162109375	 134.31658935546875	 185736.046875
19751014.0	 406.4120788574219	 155.31515502929688	 199152.84375
19750984.0	 408.1651916503906	 140.9439697265625	 182856.59375
19750956.0	 408.0711669921875	 140.44532775878906	 186915.703125
19750926.0	 409.0489501953125	 145.31130981445312	 185907.203125
19750898.0	 406.3572692871094	 132.06817626953125	 203775.828125
19750868.0	 412.35491943359375	 148.56668090820312	 192996.515625
19750840.0	 409.7697448730469	 138.95668029785156	 252204.4375
19750780.0	 418.5176086425781	 124.84867095947266	 230661.75
19750750.0	 410.9024963378906	 137.08935546875	 216009.9375
19750722.0	 409.3304138183594	 138.40821838378906	 186259.875
19750692.0	 409.34039306640625	 143.1691131591797	 213947.15625
19750664.0	 407.4825744628906	 153.5552520751953	 232870.171875
19750634.0	 414.42523193359375	 130.35023498535156	 208980.703125
19750606.0	 413.4015808105469	 161.2210693359375	 214093.3125
19750576.0	 411.6300354003906	 132.05410766601562	 192437.859375
19750546.0	 411.7920837402344	 153.1322784423828	 179010.359375
19750518.0	 410.2315368652344	 135.38531494140625	 193798.9375
19750490.0	 410.76654052734375	 143.83949279785156	 233874.484375
19750460.0	 407.0740661621094	 121.8896255493164	 204677.484375
19750432.0	 412.556396484375	 129.8832244873047	 185698.078125
19750402.0	 411.8507385253906	 135.60926818847656	 225581.125
19750374.0	 414.04742431640625	 134.0311279296875	 206178.703125
19750342.0	 409.7709045410156	 139.02780151367188	 205919.71875
19750312.0	 408.97283935546875	 141.93145751953125	 234878.140625
19750284.0	 410.4622802734375	 163.6698760986328	 217072.953125
19750254.0	 411.1794128417969	 141.4942169189453	 192980.046875
19750226.0	 410.1438293457031	 151.67446899414062	 192532.296875
19750196.0	 411.7283630371094	 140.8460693359375	 201893.546875
19750168.0	 409.46990966796875	 144.111572265625	 201678.46875
19750138.0	 411.29327392578125	 144.81149291992188	 197831.640625
19750110.0	 410.9810485839844	 137.3928680419922	 197297.5625
19750080.0	 411.0648193359375	 141.19541931152344	 203172.546875
19750052.0	 407.8952331542969	 128.1759490966797	 193030.984375
19750022.0	 413.84515380859375	 123.61126708984375	 206002.84375
19749994.0	 416.6084289550781	 137.364501953125	 208387.671875
19749964.0	 412.8849792480469	 142.30848693847656	 188009.09375
19749934.0	 411.5989074707031	 138.2283477783203	 190130.59375
19749904.0	 411.6656494140625	 131.67465209960938	 226332.59375
19749874.0	 412.7184753417969	 135.29501342773438	 199384.4375
19749818.0	 412.2213134765625	 160.9273681640625	 213352.0
19749788.0	 413.04107666015625	 131.43955993652344	 195785.5
19749760.0	 415.35223388671875	 139.95761108398438	 184239.40625
19749730.0	 412.1677551269531	 133.47113037109375	 201769.296875
19749700.0	 412.5083312988281	 147.80934143066406	 212086.640625
19749672.0	 413.0285339355469	 148.28244018554688	 264615.9375
19749642.0	 413.5360107421875	 135.5169219970703	 227142.96875
19749614.0	 410.7524719238281	 129.17169189453125	 208666.5625
19749584.0	 413.4960632324219	 121.88992309570312	 183231.46875
19749554.0	 414.4226379394531	 129.2178497314453	 208413.203125
19749526.0	 419.16259765625	 129.76541137695312	 195318.96875
19749498.0	 418.2501220703125	 135.13563537597656	 204889.75
19749466.0	 418.4310607910156	 135.90090942382812	 203877.3125
19749438.0	 413.5335693359375	 139.54774475097656	 202623.125
19749408.0	 415.694091796875	 137.5351104736328	 191915.1875
19749380.0	 411.8328857421875	 138.35911560058594	 199816.90625
19749350.0	 411.4129333496094	 150.45989990234375	 193923.734375
19749320.0	 410.5105895996094	 146.92864990234375	 199528.421875
19749292.0	 409.96142578125	 138.9031982421875	 209569.25
19749262.0	 412.32598876953125	 135.27749633789062	 191107.796875
19749234.0	 408.59527587890625	 148.26963806152344	 271175.1875
19749204.0	 412.1283874511719	 145.32540893554688	 200885.90625
19749176.0	 410.32049560546875	 131.40872192382812	 214552.359375
19749146.0	 414.6305236816406	 139.47227478027344	 189156.109375
19749118.0	 413.86248779296875	 130.96961975097656	 206292.625
19749090.0	 414.4881286621094	 134.69960021972656	 196779.109375
19749060.0	 407.8961486816406	 140.67010498046875	 328478.40625
19749028.0	 414.6235656738281	 147.4888458251953	 208434.171875
19749000.0	 414.6764831542969	 135.40692138671875	 275196.34375
19748972.0	 417.7733154296875	 146.45680236816406	 210872.25
19748942.0	 413.7574462890625	 137.23849487304688	 206321.0625
19748914.0	 417.990478515625	 132.13514709472656	 205861.4375
19748854.0	 416.94085693359375	 141.29519653320312	 204664.375
19748826.0	 416.6628112792969	 140.8296661376953	 206090.84375
19748796.0	 412.1413879394531	 133.5905303955078	 206044.03125
19748768.0	 414.2490539550781	 127.9146728515625	 209832.0625
19748738.0	 415.1710205078125	 135.44854736328125	 217514.625
19748710.0	 414.7746276855469	 132.64956665039062	 192128.90625
19748680.0	 412.5693054199219	 134.33042907714844	 178974.0
19748650.0	 410.14068603515625	 130.66253662109375	 193229.328125
19748620.0	 412.568115234375	 145.68382263183594	 195865.828125
19748592.0	 412.7433166503906	 135.16256713867188	 185675.65625
19748562.0	 411.282958984375	 133.16989135742188	 213012.546875
19748532.0	 414.861572265625	 133.4454803466797	 192480.046875
19748502.0	 412.5929260253906	 138.2808380126953	 181574.171875
19748474.0	 411.6876220703125	 143.6973114013672	 204667.234375
19748446.0	 411.0372619628906	 138.03602600097656	 201448.890625
19748416.0	 412.288818359375	 142.52040100097656	 212435.28125
19748388.0	 410.00494384765625	 136.39012145996094	 190419.34375
19748360.0	 411.40911865234375	 128.1898193359375	 188995.5625
19748330.0	 410.8229064941406	 142.1460418701172	 204308.0
19748300.0	 410.70159912109375	 151.0184783935547	 208285.875
19748272.0	 411.3451232910156	 152.64710998535156	 195316.71875
19748242.0	 412.7585754394531	 130.48416137695312	 207798.234375
19748214.0	 412.30767822265625	 132.691650390625	 180614.796875
19748182.0	 412.7919921875	 134.5826873779297	 180528.90625
19748152.0	 412.9530334472656	 132.44712829589844	 182456.625
19748124.0	 411.1603698730469	 131.0711669921875	 221935.921875
19748096.0	 411.7149353027344	 133.72364807128906	 208093.71875
19748066.0	 410.3418884277344	 136.14500427246094	 199812.171875
19748036.0	 411.8883972167969	 152.9693603515625	 205031.1875
19748008.0	 412.8779602050781	 138.5448760986328	 195640.796875
19747978.0	 412.9256896972656	 145.31675720214844	 193331.96875
19747950.0	 413.44940185546875	 147.64599609375	 202795.484375
19747892.0	 411.0850830078125	 139.11683654785156	 187823.34375
19747864.0	 409.9552001953125	 135.0384979248047	 186536.171875
19747834.0	 409.84173583984375	 153.57421875	 202108.953125
19747804.0	 409.404052734375	 146.8861846923828	 199235.78125
19747774.0	 409.2996520996094	 129.11537170410156	 201443.875
19747744.0	 410.1148681640625	 141.83975219726562	 196257.78125
19747716.0	 410.2579345703125	 147.00790405273438	 217789.15625
19747688.0	 413.1203918457031	 141.98841857910156	 197966.140625
19747658.0	 412.66265869140625	 145.97335815429688	 198134.765625
19747628.0	 412.0848693847656	 132.27235412597656	 204408.609375
19747598.0	 410.771484375	 136.88296508789062	 222035.203125
19747570.0	 413.0592346191406	 145.31130981445312	 185457.78125
19747542.0	 411.65216064453125	 142.86383056640625	 195026.84375
19747512.0	 412.6545104980469	 127.99622344970703	 192390.09375
19747482.0	 410.826416015625	 138.5158233642578	 211105.84375
19747454.0	 414.4798889160156	 129.3572998046875	 188015.421875
19747424.0	 410.38739013671875	 138.1616668701172	 206952.546875
19747396.0	 408.7680358886719	 126.72026062011719	 213253.6875
19747366.0	 412.8185119628906	 128.03672790527344	 207239.203125
19747336.0	 412.75067138671875	 126.19447326660156	 203742.0625
19747308.0	 413.44134521484375	 131.92327880859375	 203950.359375
19747278.0	 409.2452087402344	 130.4255828857422	 252296.609375
19747248.0	 411.4042053222656	 130.13204956054688	 196275.90625
19747220.0	 413.81329345703125	 133.7826385498047	 187858.328125
19747192.0	 411.8995361328125	 154.21389770507812	 194196.515625
19747162.0	 411.280517578125	 143.85475158691406	 202585.171875
19747132.0	 411.9045715332031	 140.25120544433594	 201854.390625
19747102.0	 411.5007629394531	 152.340576171875	 208975.734375
19747074.0	 411.08636474609375	 149.1060333251953	 196642.625
19747044.0	 412.9330749511719	 142.21730041503906	 180710.390625
19747016.0	 409.7685241699219	 143.38720703125	 195958.734375
19746988.0	 410.2763977050781	 147.84559631347656	 205646.28125
19746928.0	 411.83306884765625	 151.67037963867188	 195074.828125
19746898.0	 410.1120300292969	 155.9903564453125	 203075.484375
19746870.0	 410.64556884765625	 150.0088653564453	 196294.5
19746840.0	 412.34320068359375	 144.93020629882812	 178053.6875
19746812.0	 409.9368896484375	 128.58399963378906	 189551.421875
19746784.0	 410.62225341796875	 134.42926025390625	 201960.625
19746752.0	 410.33673095703125	 139.05648803710938	 204687.734375
19746724.0	 411.89111328125	 134.2232666015625	 181904.171875
19746694.0	 411.64190673828125	 143.7025146484375	 200958.890625
19746666.0	 411.11810302734375	 132.79705810546875	 183548.984375
19746638.0	 410.81292724609375	 144.3751678466797	 196634.09375
19746608.0	 411.21685791015625	 142.80970764160156	 203008.6875
19746578.0	 409.8446350097656	 147.63211059570312	 208966.15625
19746550.0	 413.2356262207031	 146.95335388183594	 190780.265625
19746520.0	 413.0442810058594	 140.69273376464844	 203712.796875
19746490.0	 415.0379943847656	 135.96035766601562	 185388.125
19746460.0	 411.9296875	 140.03956604003906	 217554.859375
19746432.0	 409.9236755371094	 145.98524475097656	 229999.21875
19746402.0	 409.74261474609375	 149.99945068359375	 211507.953125
19746372.0	 411.650634765625	 138.9650421142578	 191287.890625
19746344.0	 410.1004943847656	 140.66607666015625	 184688.4375
19746316.0	 411.23052978515625	 135.07870483398438	 204747.046875
19746286.0	 411.99090576171875	 135.08172607421875	 182762.53125
19746258.0	 411.26611328125	 143.49191284179688	 195840.828125
19746228.0	 410.812744140625	 134.13392639160156	 181025.484375
19746200.0	 408.4743347167969	 138.9020233154297	 223969.125
19746170.0	 410.947509765625	 140.3107147216797	 196696.125
19746140.0	 409.33343505859375	 141.46397399902344	 198660.453125
19746112.0	 411.9766540527344	 156.68406677246094	 188324.625
19746082.0	 410.3155212402344	 159.30966186523438	 193793.40625
19746052.0	 407.8606872558594	 143.5506591796875	 205650.640625
19746022.0	 408.4360656738281	 162.52993774414062	 195727.609375
19745966.0	 406.4490051269531	 156.8812713623047	 206502.140625
19745936.0	 409.85906982421875	 142.6590576171875	 188745.015625
19745906.0	 409.0806884765625	 154.53712463378906	 188410.40625
19745878.0	 408.63134765625	 151.8024444580078	 195984.03125
19745848.0	 407.1271667480469	 132.59544372558594	 192745.6875
19745820.0	 411.0487365722656	 145.2222137451172	 185618.953125
19745790.0	 409.3597106933594	 143.71047973632812	 186821.984375
19745762.0	 408.9178466796875	 156.6433563232422	 191452.859375
19745734.0	 409.1742248535156	 136.08676147460938	 192629.671875
19745704.0	 406.2552795410156	 125.90593719482422	 275826.34375
19745672.0	 406.45562744140625	 131.37828063964844	 191507.953125
19745644.0	 410.51226806640625	 155.5276336669922	 191532.046875
19745614.0	 410.38824462890625	 149.5312957763672	 185293.765625
19745586.0	 408.5148010253906	 142.5073699951172	 177050.546875
19745556.0	 408.0500793457031	 133.9958038330078	 204753.171875
19745528.0	 408.0244140625	 134.32505798339844	 202954.390625
19745498.0	 406.285400390625	 135.84423828125	 265869.4375
19745468.0	 407.4713439941406	 148.90191650390625	 204617.0625
19745440.0	 408.43756103515625	 149.15525817871094	 197059.75
19745412.0	 409.7935485839844	 145.35244750976562	 174521.8125
19745382.0	 407.96832275390625	 132.73284912109375	 192214.8125
19745354.0	 411.153076171875	 140.12261962890625	 196263.21875
19745324.0	 411.5153503417969	 145.45571899414062	 185311.890625
19745294.0	 410.5350341796875	 156.77462768554688	 253734.03125
19745234.0	 414.9105529785156	 133.45773315429688	 199707.96875
19745206.0	 413.3311462402344	 127.6428451538086	 189122.953125
19745176.0	 413.1496887207031	 134.15728759765625	 203268.984375
19745148.0	 412.42938232421875	 137.87359619140625	 190190.65625
19745118.0	 408.0521240234375	 140.2018585205078	 227836.0625
19745090.0	 411.00384521484375	 145.03497314453125	 201001.109375
19745062.0	 410.796875	 151.48475646972656	 201607.90625
19745002.0	 411.5628967285156	 137.42140197753906	 179135.328125
19744974.0	 412.3672180175781	 130.46600341796875	 184221.15625
19744944.0	 411.4566650390625	 139.66200256347656	 182630.65625
19744914.0	 408.8822937011719	 134.91407775878906	 212851.375
19744886.0	 411.0687255859375	 138.7677001953125	 195216.046875
19744856.0	 408.18450927734375	 145.51901245117188	 204946.0
19744826.0	 410.0362548828125	 140.7098388671875	 193982.125
19744796.0	 410.3843688964844	 153.43605041503906	 208147.96875
19744768.0	 412.435546875	 137.67185974121094	 190656.640625
19744740.0	 409.7074890136719	 131.74021911621094	 195767.78125
19744710.0	 410.25494384765625	 139.8317413330078	 199048.921875
19744682.0	 411.4405822753906	 135.4646453857422	 179951.03125
19744652.0	 406.92022705078125	 146.32992553710938	 227905.515625
19744622.0	 410.8073425292969	 148.5438995361328	 203246.71875
19744594.0	 412.6138000488281	 140.55078125	 198365.171875
19744564.0	 412.0965270996094	 140.80667114257812	 191778.171875
19744536.0	 413.9261779785156	 138.50279235839844	 196791.140625
19744508.0	 411.6831359863281	 134.97462463378906	 220915.625
19744476.0	 411.9874572753906	 148.5436553955078	 195608.9375
19744446.0	 412.8047180175781	 144.2512664794922	 180120.75
19744418.0	 410.68048095703125	 145.9739532470703	 217855.625
19744388.0	 410.7239685058594	 142.25216674804688	 203141.734375
19744360.0	 412.7721252441406	 149.0858154296875	 187623.4375
19744332.0	 409.09344482421875	 145.92141723632812	 188916.734375
19744302.0	 407.3904113769531	 155.0828857421875	 224524.546875
19744272.0	 409.8122863769531	 141.2269287109375	 192063.515625
19744242.0	 410.45977783203125	 144.56114196777344	 180304.109375
19744214.0	 407.5323791503906	 144.32164001464844	 225709.6875
19744184.0	 413.8100280761719	 154.78305053710938	 193689.59375
19744156.0	 411.33074951171875	 141.30715942382812	 196948.65625
19744128.0	 412.78070068359375	 165.4404296875	 202869.171875
19744098.0	 416.67578125	 143.4712677001953	 190863.515625
19744038.0	 412.68048095703125	 153.95481872558594	 202170.828125
19744010.0	 412.55584716796875	 141.70875549316406	 203719.5
19743982.0	 407.4310302734375	 146.0088348388672	 190020.65625
19743952.0	 403.107421875	 156.20999145507812	 290535.03125
19743922.0	 406.1444396972656	 156.88931274414062	 240182.921875
19743894.0	 408.7561340332031	 156.45858764648438	 206600.65625
19743864.0	 410.8606262207031	 143.03060913085938	 188149.40625
19743834.0	 407.4981689453125	 132.75942993164062	 196859.84375
19743806.0	 401.5039367675781	 145.64637756347656	 291031.21875
19743778.0	 411.60711669921875	 131.23809814453125	 196881.8125
19743748.0	 409.3696594238281	 137.900390625	 217783.828125
19743718.0	 409.7550964355469	 135.32374572753906	 216149.9375
19743690.0	 408.8915100097656	 147.30555725097656	 211631.078125
19743658.0	 407.02764892578125	 166.3579864501953	 206102.890625
19743630.0	 413.2421875	 179.94688415527344	 182193.671875
19743602.0	 411.6541748046875	 158.2423095703125	 203865.671875
19743572.0	 412.550537109375	 155.4198760986328	 205276.328125
19743542.0	 414.2330017089844	 155.3629913330078	 222532.421875
19743514.0	 403.59478759765625	 159.28204345703125	 359437.625
19743484.0	 410.4897155761719	 150.9259796142578	 186074.34375
19743456.0	 409.0132751464844	 142.27957153320312	 187380.765625
19743426.0	 409.7916564941406	 149.65724182128906	 167887.578125
19743368.0	 408.9710388183594	 152.11819458007812	 196168.53125
19743340.0	 408.7908935546875	 152.41717529296875	 188143.1875
19743310.0	 408.09320068359375	 148.59445190429688	 208155.5625
19743282.0	 409.6571350097656	 146.99447631835938	 204699.484375
19743250.0	 409.82415771484375	 154.64776611328125	 189812.109375
19743222.0	 410.78216552734375	 146.47332763671875	 195851.078125
19743192.0	 412.7215576171875	 138.75367736816406	 185074.578125
19743162.0	 411.4874267578125	 133.2427978515625	 204127.59375
19743134.0	 409.5986633300781	 140.26803588867188	 212089.34375
19743076.0	 412.5965576171875	 139.73890686035156	 188274.578125
19743046.0	 411.2906188964844	 145.9745330810547	 183157.875
19743018.0	 408.34228515625	 152.0362091064453	 219082.6875
19742990.0	 409.7021789550781	 141.2011260986328	 209542.890625
19742960.0	 410.4830627441406	 140.5938262939453	 179929.09375
19742932.0	 408.7049255371094	 139.41891479492188	 193038.28125
19742902.0	 410.77911376953125	 135.5980682373047	 183371.6875
19742872.0	 406.529052734375	 142.53675842285156	 225399.0
19742842.0	 410.4382019042969	 150.46002197265625	 184205.5625
19742812.0	 409.471435546875	 150.20188903808594	 191125.765625
19742784.0	 410.7968444824219	 140.18826293945312	 167085.65625
19742754.0	 410.4353942871094	 142.23617553710938	 186315.890625
19742726.0	 407.12530517578125	 150.35389709472656	 204252.421875
19742698.0	 405.6182861328125	 146.2700653076172	 222464.359375
19742668.0	 409.3348083496094	 139.1302490234375	 184272.28125
19742638.0	 408.4954833984375	 141.4037322998047	 200707.015625
19742610.0	 409.670166015625	 145.2440948486328	 180294.25
19742580.0	 408.89935302734375	 145.25360107421875	 188889.640625
19742552.0	 406.4096984863281	 139.9082794189453	 237797.375
19742522.0	 408.23944091796875	 145.2293243408203	 206488.5
19742492.0	 410.54071044921875	 137.54122924804688	 180669.921875
19742462.0	 411.96539306640625	 139.1834259033203	 200191.109375
19742432.0	 409.6186828613281	 135.72633361816406	 209607.3125
19742404.0	 411.16448974609375	 137.70555114746094	 186382.390625
19742376.0	 410.9930114746094	 143.38514709472656	 214715.375
19742346.0	 408.7563171386719	 144.17730712890625	 198745.390625
19742318.0	 410.1762390136719	 137.06346130371094	 183512.625
19742288.0	 410.0178527832031	 137.29124450683594	 198806.75
19742260.0	 409.640625	 137.862548828125	 198538.28125
19742230.0	 411.8992919921875	 144.67906188964844	 185348.46875
19742200.0	 410.2520446777344	 135.34030151367188	 189493.265625
19742172.0	 409.99261474609375	 139.4480438232422	 179049.515625
19742114.0	 407.6676940917969	 143.8173828125	 220456.1875
19742082.0	 409.66168212890625	 126.65118408203125	 192204.015625
19742054.0	 410.75091552734375	 135.17715454101562	 210096.546875
19742024.0	 408.6100769042969	 135.76991271972656	 269521.65625
19741968.0	 413.7669982910156	 140.34837341308594	 218757.3125
19741938.0	 412.7398986816406	 128.23446655273438	 189027.0
19741908.0	 411.8763427734375	 138.5286407470703	 227344.015625
19741880.0	 420.0826416015625	 133.05020141601562	 222681.640625
19741852.0	 417.29998779296875	 142.55172729492188	 212929.34375
19741822.0	 414.8662414550781	 141.97109985351562	 211247.0625
19741792.0	 413.0107116699219	 132.18490600585938	 208817.796875
19741764.0	 410.5389099121094	 129.48875427246094	 200796.125
19741734.0	 413.7110290527344	 136.41783142089844	 234505.4375
19741704.0	 415.1505432128906	 132.4892120361328	 231970.15625
19741674.0	 417.8103942871094	 135.61642456054688	 244377.875
19741646.0	 412.1858215332031	 136.85488891601562	 265076.59375
19741616.0	 413.10137939453125	 129.14364624023438	 212710.375
19741588.0	 413.26171875	 149.82691955566406	 229408.859375
19741558.0	 415.3913269042969	 136.24256896972656	 212850.078125
19741530.0	 411.741455078125	 138.6985626220703	 214642.015625
19741500.0	 408.5025634765625	 143.0803985595703	 287541.34375
19741472.0	 413.7839050292969	 138.8826904296875	 229935.796875
19741442.0	 412.0357971191406	 133.0888214111328	 219068.359375
19741412.0	 412.4499206542969	 134.15438842773438	 195816.90625
19741384.0	 405.57275390625	 139.68701171875	 253764.859375
19741354.0	 412.8894958496094	 131.91494750976562	 282468.90625
19741324.0	 420.8243713378906	 136.78831481933594	 217567.6875
19741294.0	 420.46795654296875	 133.64382934570312	 205693.234375
19741266.0	 416.6606140136719	 132.11331176757812	 209684.453125
19741238.0	 415.00616455078125	 142.0526580810547	 228856.734375
19741208.0	 417.959716796875	 130.05825805664062	 218905.421875
19741150.0	 417.6374816894531	 132.37413024902344	 204885.546875
19741122.0	 414.8109436035156	 133.015869140625	 226163.53125
19741092.0	 416.7914733886719	 135.24903869628906	 213408.25
19741062.0	 413.5386962890625	 139.03382873535156	 319909.5625
19741034.0	 413.7346496582031	 134.4974365234375	 279285.96875
19741006.0	 420.0923156738281	 129.84219360351562	 215155.171875
19740976.0	 420.1177673339844	 133.23353576660156	 207637.390625
19740946.0	 421.4980163574219	 133.7906951904297	 215632.125
19740916.0	 419.130859375	 134.0126495361328	 214160.671875
19740858.0	 413.9549865722656	 141.60292053222656	 269668.9375
19740828.0	 412.781005859375	 130.7089385986328	 190144.78125
19740800.0	 412.1277770996094	 136.35667419433594	 204281.859375
19740770.0	 411.3214111328125	 135.62081909179688	 212061.484375
19740742.0	 405.6633605957031	 142.1227569580078	 308955.0625
19740712.0	 413.0694885253906	 128.9857635498047	 192471.4375
19740682.0	 412.3517150878906	 129.24366760253906	 195435.046875
19740654.0	 415.5574951171875	 132.54815673828125	 183815.703125
19740626.0	 411.08587646484375	 137.68882751464844	 191192.125
19740596.0	 410.84320068359375	 133.6667938232422	 198494.234375
19740568.0	 411.76593017578125	 132.0936279296875	 207263.5
19740536.0	 414.6435546875	 134.8787384033203	 223669.828125
19740508.0	 411.7641296386719	 137.82064819335938	 272436.28125
19740478.0	 409.1847229003906	 141.23500061035156	 320790.25
19740450.0	 415.44293212890625	 138.17819213867188	 205575.015625
19740420.0	 412.771240234375	 129.7593231201172	 207326.59375
19740392.0	 413.935302734375	 133.84861755371094	 221542.578125
19740362.0	 415.5235290527344	 131.03770446777344	 201364.921875
19740332.0	 407.6369323730469	 146.77056884765625	 397527.53125
19740304.0	 420.3637390136719	 130.5407257080078	 221877.765625
19740274.0	 422.1148986816406	 137.04153442382812	 233411.265625
19740246.0	 418.27587890625	 146.83499145507812	 246134.1875
19740188.0	 417.80816650390625	 137.27508544921875	 225195.328125
19740156.0	 408.74365234375	 143.89720153808594	 237224.828125
19740128.0	 410.1996765136719	 135.66981506347656	 190506.4375
19740100.0	 408.9374084472656	 134.91798400878906	 245130.625
19740070.0	 411.0966491699219	 132.0620574951172	 201642.125
19740042.0	 410.17724609375	 140.0061492919922	 255995.484375
19740012.0	 417.307373046875	 132.46534729003906	 210573.03125
19739982.0	 413.9400329589844	 136.5978546142578	 220391.640625
19739954.0	 417.17413330078125	 139.29083251953125	 220613.140625
19739924.0	 413.3779602050781	 133.39138793945312	 204240.078125
19739896.0	 412.39117431640625	 130.75856018066406	 210357.8125
19739866.0	 407.7523498535156	 134.82180786132812	 292057.1875
19739838.0	 416.3108215332031	 129.6837921142578	 216570.234375
19739808.0	 418.88946533203125	 137.6007843017578	 216503.875
19739778.0	 416.9298095703125	 132.9181365966797	 220332.921875
19739748.0	 418.6657409667969	 137.19448852539062	 226963.59375
19739720.0	 419.3038635253906	 136.228271484375	 230329.671875
19739662.0	 420.5562438964844	 128.94976806640625	 216496.53125
19739632.0	 418.3741149902344	 138.09786987304688	 232364.125
19739602.0	 421.92315673828125	 132.9535675048828	 237292.859375
19739574.0	 418.7494812011719	 134.2467041015625	 222613.640625
19739544.0	 419.7587890625	 134.0063934326172	 200685.28125
19739516.0	 415.5113220214844	 129.18055725097656	 199550.265625
19739488.0	 415.3607482910156	 128.9248809814453	 205410.703125
19739458.0	 419.8420104980469	 142.5742645263672	 255734.75
19739430.0	 421.4156188964844	 141.2984619140625	 225144.046875
19739398.0	 417.85797119140625	 137.24119567871094	 208244.109375
19739368.0	 414.593017578125	 129.91616821289062	 195357.046875
19739340.0	 415.5468444824219	 132.17230224609375	 192963.765625
19739312.0	 417.5929870605469	 135.85006713867188	 225838.65625
19739282.0	 417.631103515625	 136.97975158691406	 215889.640625
19739224.0	 413.8572082519531	 131.32144165039062	 205891.296875
19739194.0	 418.0400695800781	 133.8365936279297	 208445.21875
19739166.0	 415.52423095703125	 133.90521240234375	 214627.5625
19739136.0	 417.17437744140625	 144.1429901123047	 225366.40625
19739108.0	 410.73248291015625	 143.8777618408203	 284292.6875
19739078.0	 416.62994384765625	 136.56198120117188	 214761.84375
19739048.0	 413.4064636230469	 142.28253173828125	 300083.90625
19739018.0	 414.2514343261719	 133.19371032714844	 266319.5
19738990.0	 415.31463623046875	 129.79486083984375	 223632.171875
19738962.0	 418.51251220703125	 134.86715698242188	 242256.71875
19738932.0	 421.8085021972656	 133.3151092529297	 225252.875
19738874.0	 422.41510009765625	 137.83816528320312	 215974.890625
19738844.0	 418.9117736816406	 139.02835083007812	 221164.53125
19738816.0	 417.9521179199219	 140.71873474121094	 220978.859375
19738786.0	 415.7933044433594	 142.2449493408203	 249467.46875
19738758.0	 422.73431396484375	 147.4370574951172	 257454.828125
19738728.0	 422.10198974609375	 142.61085510253906	 213456.09375
19738700.0	 421.3302001953125	 137.36761474609375	 217966.84375
19738668.0	 417.1855773925781	 136.55564880371094	 210121.78125
19738640.0	 419.1300048828125	 133.80435180664062	 205969.359375
19738610.0	 421.3347473144531	 138.7350616455078	 202881.265625
19738582.0	 416.7561340332031	 140.68626403808594	 245838.640625
19738552.0	 421.351318359375	 137.1029052734375	 228839.734375
19738524.0	 422.54119873046875	 140.0248260498047	 224086.296875
19738494.0	 424.5866394042969	 144.85055541992188	 254555.546875
19738464.0	 421.0193176269531	 147.5622100830078	 335737.59375
19738436.0	 422.2740173339844	 146.56239318847656	 378164.8125
19738406.0	 423.14727783203125	 137.1118927001953	 449768.375
19738378.0	 433.3719177246094	 135.6470947265625	 300316.75
19738350.0	 423.01312255859375	 134.0220489501953	 382030.21875
19738320.0	 425.4056396484375	 130.076904296875	 222861.9375
19738260.0	 418.2762756347656	 128.04461669921875	 222131.1875
19738232.0	 423.4527282714844	 144.4764862060547	 249342.515625
19738202.0	 416.1708068847656	 130.7376708984375	 263346.875
19738172.0	 425.0372009277344	 144.4929962158203	 242417.765625
19738144.0	 426.25335693359375	 138.2948455810547	 249356.609375
19738116.0	 419.2498474121094	 137.06666564941406	 215632.859375
19738086.0	 413.4375	 135.0440673828125	 210067.109375
19738056.0	 410.75994873046875	 144.5406951904297	 327888.5625
19738028.0	 421.1142883300781	 147.82562255859375	 231623.25
19737998.0	 420.0855712890625	 153.8607635498047	 386514.75
19737970.0	 439.31427001953125	 145.4037628173828	 307152.65625
19737942.0	 430.7914123535156	 134.85304260253906	 282688.46875
19737910.0	 427.1941223144531	 151.75828552246094	 426876.46875
19737880.0	 428.2561950683594	 145.5047149658203	 344203.15625
19737850.0	 439.25445556640625	 155.8605194091797	 290639.75
19737822.0	 433.4657897949219	 151.35772705078125	 254031.140625
19737794.0	 424.3822937011719	 145.4540557861328	 250979.46875
19737764.0	 430.98883056640625	 135.42298889160156	 242823.484375
19737736.0	 422.01947021484375	 138.10366821289062	 409521.53125
19737706.0	 433.7944641113281	 140.77572631835938	 284238.25
19737678.0	 427.537353515625	 145.49188232421875	 319514.1875
19737648.0	 424.399169921875	 139.47264099121094	 243668.453125
19737620.0	 414.4969787597656	 146.30931091308594	 428203.1875
19737590.0	 418.00048828125	 140.04953002929688	 314529.0
19737560.0	 401.36932373046875	 169.0269317626953	 546051.1875
19737532.0	 424.60296630859375	 153.8561248779297	 342287.96875
19737500.0	 431.98333740234375	 140.41427612304688	 240501.296875
19737472.0	 429.63397216796875	 145.13133239746094	 247443.578125
19737442.0	 430.503662109375	 145.5762939453125	 250041.484375
19737414.0	 425.47906494140625	 144.3613739013672	 256675.34375
19737386.0	 425.94500732421875	 139.5546875	 232177.484375
19737356.0	 422.0401306152344	 140.79595947265625	 237810.078125
19737298.0	 434.66363525390625	 152.25816345214844	 264015.65625
19737268.0	 427.8601379394531	 143.2718963623047	 250085.859375
19737240.0	 427.8877868652344	 143.56715393066406	 249157.28125
19737212.0	 418.9484558105469	 153.42071533203125	 383129.46875
19737180.0	 426.96282958984375	 134.41293334960938	 239773.765625
19737152.0	 423.8028869628906	 147.55870056152344	 356847.28125
19737122.0	 420.8406677246094	 164.47425842285156	 339972.34375
19737092.0	 422.7793273925781	 139.37863159179688	 246920.015625
19737064.0	 419.947998046875	 135.69570922851562	 231823.734375
19737034.0	 417.970458984375	 138.6183624267578	 209262.015625
19737006.0	 416.8426818847656	 130.68626403808594	 199356.109375
19736978.0	 414.8249206542969	 138.46678161621094	 234347.78125
19736948.0	 411.0756530761719	 130.75184631347656	 220002.84375
19736920.0	 414.122802734375	 129.79168701171875	 198631.890625
19736890.0	 413.18536376953125	 129.04266357421875	 184811.875
19736860.0	 412.7895202636719	 133.1320343017578	 230576.5625
19736830.0	 413.4611511230469	 124.69336700439453	 197361.953125
19736802.0	 413.4908142089844	 127.7602310180664	 205084.921875
19736772.0	 414.096923828125	 128.4637908935547	 192350.359375
19736742.0	 414.60455322265625	 141.4862518310547	 211084.328125
19736714.0	 414.2082214355469	 139.0391082763672	 197139.78125
19736684.0	 412.3027038574219	 146.04640197753906	 206766.65625
19736656.0	 411.34429931640625	 137.50990295410156	 203570.765625
19736626.0	 408.6852722167969	 146.5549774169922	 203210.90625
19736598.0	 408.4930725097656	 135.4254913330078	 201115.4375
19736568.0	 407.6962585449219	 128.6202850341797	 193667.765625
19736540.0	 406.8147277832031	 165.69180297851562	 195266.359375
19736512.0	 402.4405517578125	 138.7707977294922	 221092.71875
19736482.0	 404.5390625	 117.58570861816406	 196240.765625
19736452.0	 409.4664611816406	 132.8480987548828	 192675.296875
19736422.0	 411.1198425292969	 130.4140167236328	 192799.375
19736392.0	 414.638916015625	 136.7056121826172	 187440.828125
19736334.0	 414.6112060546875	 145.63658142089844	 213070.109375
19736306.0	 414.20526123046875	 146.3088836669922	 205915.21875
19736276.0	 412.10809326171875	 149.2907257080078	 257970.734375
19736246.0	 414.24139404296875	 145.16738891601562	 189723.15625
19736218.0	 413.94451904296875	 134.1461639404297	 219213.703125
19736190.0	 418.2610778808594	 147.06956481933594	 202017.921875
19736162.0	 417.021240234375	 162.1267547607422	 223423.78125
19736132.0	 417.4903869628906	 150.22952270507812	 249422.390625
19736100.0	 418.38916015625	 148.73898315429688	 237000.28125
19736070.0	 418.06256103515625	 137.81517028808594	 225584.46875
19736042.0	 411.92388916015625	 125.53035736083984	 178350.765625
19736014.0	 413.5841064453125	 134.37899780273438	 185174.0625
19735984.0	 411.6759338378906	 138.60052490234375	 246021.0
19735956.0	 413.67803955078125	 132.24298095703125	 212829.65625
19735926.0	 412.07989501953125	 137.5893096923828	 281898.46875
19735896.0	 417.00396728515625	 129.12254333496094	 198739.46875
19735868.0	 416.236572265625	 132.71490478515625	 212559.984375
19735840.0	 416.1369323730469	 137.26051330566406	 217081.28125
19735810.0	 416.6754455566406	 136.81689453125	 195354.40625
19735782.0	 419.1624450683594	 139.95631408691406	 216754.890625
19735750.0	 418.2960510253906	 135.8699951171875	 221512.8125
19735720.0	 408.0827941894531	 145.56146240234375	 341594.375
19735692.0	 418.5544738769531	 132.156494140625	 193086.03125
19735662.0	 416.4809875488281	 135.3230743408203	 191304.796875
19735634.0	 414.1319580078125	 130.70787048339844	 197834.625
19735606.0	 408.642578125	 133.24244689941406	 223988.65625
19735576.0	 413.30499267578125	 129.7289276123047	 193745.296875
19735548.0	 414.5728454589844	 133.2996063232422	 197400.828125
19735518.0	 414.8987731933594	 130.11135864257812	 176859.34375
19735488.0	 413.3522033691406	 134.42929077148438	 224507.125
19735460.0	 413.60223388671875	 143.68406677246094	 211462.59375
19735430.0	 410.5943603515625	 140.13145446777344	 209627.6875
19735372.0	 406.9879150390625	 133.3437957763672	 245836.640625
19735342.0	 413.7525939941406	 135.9847869873047	 202036.90625
19735312.0	 412.3036804199219	 136.5890350341797	 204389.34375
19735284.0	 414.77459716796875	 137.89732360839844	 198506.0
19735254.0	 414.3527526855469	 132.0841064453125	 194324.328125
19735226.0	 415.7136535644531	 139.71908569335938	 211747.90625
19735196.0	 418.8064880371094	 138.20095825195312	 217674.796875
19735168.0	 416.05902099609375	 133.08326721191406	 198598.53125
19735140.0	 417.99420166015625	 141.7898406982422	 210973.859375
19735110.0	 417.50799560546875	 141.68075561523438	 199826.046875
19735082.0	 411.9407653808594	 145.61537170410156	 295633.5625
19735052.0	 414.62322998046875	 133.94546508789062	 217715.8125
19735022.0	 412.3823547363281	 139.27720642089844	 270120.46875
19734992.0	 412.451171875	 137.9965362548828	 253135.0625
19734962.0	 413.18096923828125	 128.5974578857422	 225799.078125
19734934.0	 409.2389831542969	 131.18106079101562	 244917.328125
19734904.0	 411.308837890625	 130.2178497314453	 196991.453125
19734876.0	 409.1138000488281	 134.880859375	 206291.46875
19734846.0	 410.80523681640625	 127.59239196777344	 187429.390625
19734818.0	 411.2894287109375	 127.2702407836914	 235257.28125
19734788.0	 414.7569580078125	 131.63735961914062	 229941.453125
19734760.0	 420.8751525878906	 145.00730895996094	 219249.984375
19734730.0	 418.7872009277344	 134.3040771484375	 216689.265625
19734702.0	 418.610595703125	 134.97645568847656	 208394.703125
19734670.0	 416.0367431640625	 136.09620666503906	 209659.15625
19734642.0	 412.2204895019531	 125.91600799560547	 221875.703125
19734612.0	 414.687255859375	 127.33432006835938	 213969.375
19734584.0	 413.7625427246094	 143.80282592773438	 239361.953125
19734554.0	 412.4869384765625	 143.52490234375	 210116.859375
19734524.0	 409.5853576660156	 134.12017822265625	 200417.78125
19734496.0	 408.91754150390625	 139.50906372070312	 214828.84375
19734468.0	 407.3065185546875	 136.31956481933594	 195981.015625
19734410.0	 406.1857604980469	 132.542236328125	 214293.578125
19734380.0	 411.70745849609375	 136.79286193847656	 188236.734375
19734352.0	 408.9104309082031	 142.2008056640625	 192037.859375
19734322.0	 412.44952392578125	 128.33448791503906	 192860.390625
19734290.0	 411.3785400390625	 134.39634704589844	 275149.8125
19734262.0	 415.7555236816406	 133.81468200683594	 234122.4375
19734232.0	 419.3540954589844	 134.60902404785156	 222102.265625
19734204.0	 414.0079650878906	 139.3628692626953	 220339.84375
19734176.0	 414.05914306640625	 139.6082763671875	 274696.40625
19734146.0	 410.7830505371094	 136.18397521972656	 274897.28125
19734116.0	 415.3221740722656	 126.67940521240234	 195981.09375
19734088.0	 412.54296875	 133.66238403320312	 195413.96875
19734058.0	 413.0561218261719	 134.70333862304688	 209162.734375
19734030.0	 413.1908264160156	 137.02235412597656	 226119.953125
19734002.0	 416.1340026855469	 136.70230102539062	 201152.71875
19733970.0	 415.8976135253906	 132.560791015625	 207209.4375
19733942.0	 414.4994201660156	 136.21580505371094	 216506.9375
19733912.0	 415.8966064453125	 138.15853881835938	 219238.5
19733882.0	 418.1676940917969	 141.45742797851562	 206562.6875
19733854.0	 419.2861633300781	 136.20663452148438	 225202.328125
19733824.0	 420.6324462890625	 140.0666961669922	 212129.34375
19733796.0	 418.0846252441406	 134.8228759765625	 222839.359375
19733768.0	 418.42578125	 136.0018310546875	 226840.6875
19733738.0	 419.633544921875	 138.15626525878906	 232857.0
19733710.0	 414.9154968261719	 133.50596618652344	 218292.96875
19733680.0	 417.3888854980469	 135.95176696777344	 216398.8125
19733620.0	 420.3781433105469	 131.04275512695312	 192134.5625
19733592.0	 415.6493835449219	 134.72035217285156	 254470.390625
19733562.0	 409.1548767089844	 141.8542022705078	 352055.5625
19733532.0	 420.3390808105469	 135.9870147705078	 204146.203125
19733504.0	 416.9158935546875	 132.8626708984375	 210821.328125
19733446.0	 416.080322265625	 133.51405334472656	 200131.453125
19733416.0	 415.325927734375	 126.91600036621094	 212934.015625
19733388.0	 415.5068359375	 139.1042022705078	 305984.03125
19733360.0	 413.4158630371094	 137.89137268066406	 285103.25
19733330.0	 419.3143310546875	 133.18289184570312	 229674.109375
19733300.0	 411.605224609375	 140.74864196777344	 299617.375
19733270.0	 417.7984619140625	 137.52098083496094	 219890.125
19733242.0	 418.0366516113281	 134.09898376464844	 206186.78125
19733212.0	 415.0394287109375	 136.77923583984375	 231409.703125
19733182.0	 414.1508483886719	 128.01748657226562	 212653.546875
19733154.0	 415.4577941894531	 135.66514587402344	 232810.59375
19733124.0	 419.6825866699219	 138.6579132080078	 223091.96875
19733096.0	 419.3075256347656	 135.66090393066406	 217327.171875
19733066.0	 419.15625	 135.4822235107422	 225349.78125
19733038.0	 415.85784912109375	 135.99630737304688	 211642.71875
19733008.0	 415.13037109375	 134.1864471435547	 209953.953125
19732980.0	 414.8623046875	 135.00559997558594	 207761.296875
19732950.0	 413.0867919921875	 131.45016479492188	 216298.875
19732920.0	 416.58038330078125	 133.99868774414062	 211988.078125
19732892.0	 414.8403015136719	 130.69107055664062	 215697.078125
19732862.0	 415.2451477050781	 137.50656127929688	 211640.140625
19732832.0	 419.2535705566406	 135.03257751464844	 211972.046875
19732802.0	 419.2486267089844	 142.41061401367188	 219260.390625
19732774.0	 417.7862854003906	 138.09365844726562	 203389.609375
19732746.0	 417.2248229980469	 136.25355529785156	 231264.109375
19732716.0	 416.2893371582031	 135.00735473632812	 210790.46875
19732688.0	 417.15936279296875	 129.5803680419922	 205006.75
19732658.0	 410.86431884765625	 142.94847106933594	 313020.53125
19732630.0	 417.26727294921875	 139.24073791503906	 202773.03125
19732598.0	 417.4254150390625	 130.93753051757812	 200925.15625
19732570.0	 417.5594787597656	 136.94000244140625	 235885.296875
19732540.0	 415.60089111328125	 135.54074096679688	 238093.640625
19732482.0	 418.14739990234375	 133.92727661132812	 207996.765625
19732452.0	 418.2456359863281	 135.23590087890625	 238653.375
19732424.0	 419.4950256347656	 137.21563720703125	 221565.234375
19732396.0	 420.6321716308594	 135.09266662597656	 208870.859375
19732366.0	 419.51214599609375	 135.97308349609375	 219125.109375
19732308.0	 423.1169128417969	 138.52330017089844	 235245.4375
19732280.0	 420.0144958496094	 142.3286895751953	 223253.59375
19732248.0	 420.70751953125	 131.06036376953125	 210565.859375
19732220.0	 415.9158020019531	 131.9403839111328	 211117.28125
19732190.0	 417.02471923828125	 129.17568969726562	 213719.59375
19732162.0	 421.6443786621094	 134.62823486328125	 220999.078125
19732132.0	 415.207763671875	 141.47044372558594	 294889.5
19732104.0	 420.43304443359375	 141.01220703125	 247853.46875
19732074.0	 421.504638671875	 132.3665771484375	 221604.953125
19732046.0	 421.2080993652344	 138.79446411132812	 226967.015625
19732016.0	 419.51177978515625	 138.75733947753906	 229112.546875
19731986.0	 421.1861877441406	 136.38656616210938	 243527.859375
19731958.0	 422.28497314453125	 133.793701171875	 218937.59375
19731928.0	 425.06402587890625	 140.03240966796875	 228879.015625
19731898.0	 417.64813232421875	 134.64413452148438	 223335.625
19731870.0	 413.276611328125	 132.86436462402344	 263781.875
19731840.0	 418.300537109375	 140.3087158203125	 256937.546875
19731812.0	 423.9891662597656	 145.09332275390625	 280816.4375
19731780.0	 424.89599609375	 147.92185974121094	 264314.0625
19731752.0	 425.7780456542969	 144.85740661621094	 249947.453125
19731724.0	 425.0992431640625	 149.25758361816406	 331498.9375
19731694.0	 421.91510009765625	 143.35525512695312	 269290.125
19731666.0	 422.5533752441406	 134.82168579101562	 261765.921875
19731638.0	 412.5295715332031	 145.64186096191406	 343226.34375
19731608.0	 410.1910400390625	 145.4974822998047	 452868.0
19731578.0	 420.6262512207031	 139.35858154296875	 275850.0625
19731520.0	 414.4364318847656	 163.23822021484375	 405679.03125
19731490.0	 428.6847839355469	 154.22756958007812	 284439.3125
19731462.0	 426.0300598144531	 143.53233337402344	 274371.09375
19731432.0	 426.8009033203125	 144.52252197265625	 243397.140625
19731402.0	 428.5035705566406	 148.8065185546875	 232803.640625
19731344.0	 418.6404724121094	 139.1216278076172	 236499.359375
19731316.0	 421.8583679199219	 128.07827758789062	 217596.8125
19731286.0	 421.0346374511719	 147.41543579101562	 213210.359375
19731258.0	 406.35699462890625	 140.88291931152344	 305146.1875
19731226.0	 414.1332702636719	 140.4571990966797	 232801.78125
19731198.0	 414.3984680175781	 136.9417724609375	 205943.4375
19731168.0	 412.9152526855469	 139.9114990234375	 233531.15625
19731140.0	 414.54730224609375	 133.9855499267578	 217912.046875
19731112.0	 412.2886657714844	 133.0261688232422	 218545.5625
19731082.0	 421.0834655761719	 133.9140625	 228281.109375
19731052.0	 415.4039611816406	 144.96292114257812	 228581.15625
19731024.0	 417.0880126953125	 130.57537841796875	 215893.3125
19730994.0	 420.84222412109375	 137.28245544433594	 211609.671875
19730966.0	 420.1527404785156	 136.44630432128906	 216586.359375
19730936.0	 420.5356140136719	 136.77130126953125	 211782.5625
19730908.0	 417.22100830078125	 137.37355041503906	 210270.359375
19730878.0	 417.5154724121094	 133.74053955078125	 216609.796875
19730848.0	 410.6873779296875	 143.008544921875	 240764.09375
19730820.0	 408.6585998535156	 149.98196411132812	 355505.71875
19730790.0	 416.8831481933594	 138.2025146484375	 227680.46875
19730760.0	 420.1260070800781	 138.3352813720703	 237874.828125
19730732.0	 411.0985412597656	 149.61058044433594	 446044.1875
19730702.0	 413.1047058105469	 130.96372985839844	 246489.71875
19730644.0	 416.020263671875	 145.23521423339844	 217465.578125
19730616.0	 410.5206604003906	 136.2347869873047	 201628.78125
19730556.0	 403.576171875	 134.74354553222656	 344780.6875
19730526.0	 411.27581787109375	 134.3632049560547	 249931.59375
19730498.0	 412.9141845703125	 128.8280029296875	 216467.078125
19730468.0	 417.0870666503906	 130.21926879882812	 197227.828125
19730440.0	 413.8732604980469	 132.85751342773438	 222357.796875
19730412.0	 413.2190856933594	 133.32452392578125	 201237.734375
19730382.0	 413.2935791015625	 136.46792602539062	 220550.984375
19730352.0	 416.0856018066406	 135.3522491455078	 203141.5625
19730322.0	 413.2311096191406	 130.4353485107422	 200499.96875
19730294.0	 412.716064453125	 126.74478149414062	 199354.5625
19730266.0	 414.981689453125	 133.12432861328125	 227068.71875
19730236.0	 414.31317138671875	 136.87124633789062	 218612.21875
19730206.0	 411.1318664550781	 135.1508331298828	 217455.453125
19730176.0	 413.076416015625	 132.04769897460938	 210935.671875
19730148.0	 412.4273376464844	 136.30934143066406	 211415.5
19730118.0	 412.838623046875	 133.97705078125	 219096.03125
19730090.0	 411.2129211425781	 129.68069458007812	 224009.53125
19730060.0	 411.5750732421875	 133.3903350830078	 277061.4375
19730032.0	 415.7572326660156	 136.27369689941406	 206055.609375
19730002.0	 415.7960205078125	 126.34149932861328	 228377.15625
19729974.0	 416.57965087890625	 132.8347625732422	 210075.796875
19729944.0	 416.3908386230469	 136.57472229003906	 239673.109375
19729914.0	 417.880126953125	 141.41650390625	 240019.453125
19729884.0	 420.6551513671875	 139.6330108642578	 237991.859375
19729856.0	 422.4617004394531	 133.5601348876953	 225567.78125
19729826.0	 416.2662353515625	 132.61306762695312	 211369.34375
19729798.0	 407.43402099609375	 127.68292236328125	 233307.625
19729768.0	 411.3312683105469	 148.02220153808594	 263015.59375
19729740.0	 400.8722839355469	 145.14662170410156	 434178.90625
19729710.0	 402.8778076171875	 132.96771240234375	 323375.21875
19729682.0	 410.34210205078125	 137.9347381591797	 274049.3125
19729652.0	 415.324462890625	 146.7545623779297	 284806.5
19729594.0	 409.68304443359375	 134.82583618164062	 364199.0625
19729566.0	 402.719482421875	 139.2465057373047	 462191.0625
19729534.0	 401.5138244628906	 118.902099609375	 248620.40625
19729506.0	 419.65740966796875	 130.10147094726562	 254304.28125
19729476.0	 417.537841796875	 143.06381225585938	 330189.875
19729448.0	 418.74298095703125	 134.61859130859375	 270630.84375
19729418.0	 420.0722961425781	 150.07489013671875	 239918.828125
19729390.0	 401.922607421875	 152.83718872070312	 284849.40625
19729360.0	 412.6459045410156	 142.07994079589844	 267223.8125
19729332.0	 412.5847473144531	 151.15542602539062	 324371.03125
19729302.0	 439.254150390625	 178.98812866210938	 464428.59375
19729274.0	 465.67083740234375	 175.56024169921875	 886740.9375
19728542.0	 447.0626525878906	 148.732421875	 520951.125
19728514.0	 456.49896240234375	 135.4525604248047	 331128.53125
19728484.0	 470.90802001953125	 187.14898681640625	 359078.40625
19728456.0	 459.26531982421875	 140.0029754638672	 351320.96875
19728426.0	 463.4012451171875	 163.37625122070312	 417100.625
19728396.0	 441.7419128417969	 134.53677368164062	 534760.125
19728368.0	 456.2639465332031	 134.669921875	 482614.5625
19728338.0	 446.7799377441406	 142.4893341064453	 470859.09375
19728310.0	 468.3659362792969	 127.82521057128906	 511230.5625
19728282.0	 470.373779296875	 142.54249572753906	 525868.8125
19728252.0	 457.5315246582031	 133.65655517578125	 404758.3125
19728220.0	 445.4517517089844	 146.35870361328125	 646377.0
19728192.0	 470.51751708984375	 154.09356689453125	 593885.5625
19728162.0	 475.0776672363281	 136.0830535888672	 497408.65625
19728134.0	 479.6179504394531	 139.326904296875	 503251.71875
19728104.0	 461.1127014160156	 131.44210815429688	 444082.59375
19728076.0	 457.31695556640625	 141.37876892089844	 430463.9375
19728048.0	 445.9974670410156	 127.00141906738281	 364466.3125
19728018.0	 432.8925476074219	 157.5833740234375	 722153.875
19727990.0	 450.1244812011719	 130.55816650390625	 427444.125
19727960.0	 441.9396667480469	 159.7899169921875	 674394.4375
19727930.0	 456.61175537109375	 139.7749481201172	 484207.3125
19727900.0	 442.0484313964844	 144.18458557128906	 773181.625
19727872.0	 460.090576171875	 142.9862060546875	 495861.90625
19727842.0	 449.1112976074219	 169.53530883789062	 955064.6875
19727814.0	 466.94232177734375	 126.97456359863281	 487519.4375
19727784.0	 465.7188415527344	 147.02719116210938	 487362.71875
19727754.0	 451.3110046386719	 158.6607666015625	 656914.5625
19727726.0	 446.1485290527344	 173.74761962890625	 1010663.625
19727668.0	 464.6761779785156	 139.00271606445312	 636215.125
19727638.0	 469.62286376953125	 137.31808471679688	 587649.9375
19727610.0	 460.00531005859375	 159.17855834960938	 689731.5625
19727580.0	 449.18890380859375	 132.9786376953125	 452902.28125
19727550.0	 462.1449279785156	 169.6346435546875	 583959.3125
19727522.0	 477.6455078125	 135.82904052734375	 609777.0625
19727490.0	 453.3796081542969	 142.49598693847656	 494664.53125
19727462.0	 441.1439514160156	 141.85385131835938	 505376.09375
19727434.0	 443.36932373046875	 165.161376953125	 786389.3125
19727404.0	 456.7898254394531	 199.03619384765625	 518071.71875
19727376.0	 432.38397216796875	 135.8848419189453	 420477.0625
19727348.0	 448.9613342285156	 189.79161071777344	 724495.0625
19727318.0	 504.5240478515625	 180.09466552734375	 879732.3125
19727290.0	 514.8938598632812	 135.9073028564453	 594192.0625
19727084.0	 512.145263671875	 159.21530151367188	 1388981.625
19727054.0	 516.8932495117188	 121.14826965332031	 684863.0625
19727026.0	 489.52239990234375	 161.7694549560547	 917337.6875
19726996.0	 510.0638427734375	 159.66932678222656	 903389.0625
19726968.0	 506.9786071777344	 198.68763732910156	 1376165.25
19726850.0	 493.8485412597656	 184.06271362304688	 1688668.625
19726762.0	 473.3255920410156	 239.75250244140625	 1364517.5
19726704.0	 475.1762390136719	 145.51754760742188	 845316.625
19726676.0	 478.12939453125	 150.27081298828125	 601373.25
19726646.0	 484.060546875	 147.33518981933594	 591110.875
19726616.0	 483.1553649902344	 142.94871520996094	 723048.375
19726588.0	 479.3955383300781	 153.42674255371094	 1107680.125
19726558.0	 499.9414367675781	 141.6240997314453	 649575.8125
19726530.0	 501.5580749511719	 131.1280059814453	 597243.3125
19726500.0	 506.4465026855469	 129.52281188964844	 788129.9375
19726472.0	 487.650390625	 152.986083984375	 1081573.625
19726442.0	 492.98785400390625	 168.93020629882812	 1287238.875
19726412.0	 502.1971435546875	 129.69898986816406	 1272949.25
19726296.0	 502.98577880859375	 144.3004608154297	 1137352.875
19726266.0	 489.9682922363281	 157.83897399902344	 1314230.0
19726238.0	 533.6856689453125	 213.64833068847656	 1524725.625
19726208.0	 516.05224609375	 116.45362854003906	 617557.625
19726180.0	 520.8261108398438	 126.40814971923828	 929641.3125
19726092.0	 512.857177734375	 128.5860137939453	 931090.6875
19726062.0	 496.0467834472656	 176.81396484375	 1404876.5
19726034.0	 536.8364868164062	 135.41883850097656	 784072.375
19726004.0	 484.0592041015625	 134.2741241455078	 1186071.375
19725974.0	 521.0144653320312	 156.87869262695312	 788346.1875
19725944.0	 485.24072265625	 140.0968017578125	 579985.8125
19725916.0	 480.7980651855469	 165.93826293945312	 540420.8125
19725886.0	 480.5185852050781	 143.129150390625	 555694.3125
19725858.0	 474.0527038574219	 152.73193359375	 832720.4375
19725830.0	 490.83172607421875	 147.39828491210938	 1146035.875
19725800.0	 500.0564880371094	 128.4956512451172	 554338.3125
19725742.0	 522.6932983398438	 138.11460876464844	 735891.8125
19725712.0	 515.3362426757812	 135.4109344482422	 653495.875
19725538.0	 510.2146911621094	 130.47483825683594	 1057395.625
19725508.0	 495.13385009765625	 177.1312255859375	 1631498.625
19725478.0	 501.16021728515625	 165.622314453125	 1507144.0
19725450.0	 499.985107421875	 162.4113006591797	 739665.9375
19725420.0	 483.3674011230469	 153.99778747558594	 1287398.125
19725392.0	 495.3844909667969	 190.1330108642578	 1382935.875
19725364.0	 515.645263671875	 124.72505187988281	 743882.125
19725332.0	 536.9566040039062	 145.97886657714844	 1356614.25
19725274.0	 501.8429870605469	 152.80709838867188	 1326331.625
19725216.0	 520.2390747070312	 156.3187255859375	 1638991.25
19725158.0	 511.94525146484375	 138.11216735839844	 1263716.125
19725130.0	 493.2001953125	 163.0673065185547	 1399677.125
19725100.0	 506.04083251953125	 148.7638702392578	 1518214.5
19725012.0	 513.19970703125	 161.18919372558594	 1191724.625
19724982.0	 491.0328063964844	 127.6553726196289	 1142023.75
19724430.0	 525.3443603515625	 133.8976593017578	 1064842.5
19724398.0	 485.46240234375	 150.4294891357422	 1488044.875
19724370.0	 516.8477172851562	 117.96498107910156	 543124.125
19724340.0	 503.5920104980469	 136.23806762695312	 858577.375
19724312.0	 482.8825988769531	 179.7743682861328	 1045809.25
19724282.0	 529.207763671875	 133.15084838867188	 1407566.875
19724254.0	 516.5654907226562	 147.90135192871094	 1484656.875
19724224.0	 495.4466247558594	 134.64207458496094	 914926.6875
19724194.0	 498.74725341796875	 137.3329620361328	 634763.5625
19724166.0	 502.13714599609375	 172.6031494140625	 1446269.0
19723932.0	 499.2236022949219	 126.27239990234375	 1469798.625
19723904.0	 506.3604431152344	 137.2593994140625	 1343099.875
19723874.0	 510.27734375	 150.5080108642578	 1330428.0
19723612.0	 541.0884399414062	 140.59649658203125	 1301761.125
19723552.0	 521.4888305664062	 159.45672607421875	 1206568.625
19723496.0	 534.8619384765625	 208.38259887695312	 768749.0625
19723464.0	 524.680419921875	 176.8861083984375	 813100.9375
19723434.0	 518.8909301757812	 143.4640350341797	 775193.375
19723406.0	 508.6568298339844	 147.90371704101562	 1004020.25
19723378.0	 518.2977294921875	 139.91622924804688	 1144906.625
19723348.0	 514.3451538085938	 142.95834350585938	 1011416.625
19723320.0	 519.6102905273438	 132.32545471191406	 735202.0625
19723290.0	 522.0906982421875	 132.980224609375	 701544.625
19723262.0	 540.55859375	 124.3991470336914	 566267.4375
19723234.0	 494.9058532714844	 143.72605895996094	 1033340.25
19723204.0	 518.1859741210938	 125.51576232910156	 570528.3125
19723174.0	 495.86981201171875	 143.24917602539062	 850478.1875
19723144.0	 510.0870056152344	 138.72906494140625	 591685.1875
19723114.0	 499.04510498046875	 150.90216064453125	 1001646.875
19723086.0	 507.32733154296875	 143.02467346191406	 921260.4375
19723056.0	 509.74981689453125	 136.62338256835938	 754420.4375
19723028.0	 488.8263244628906	 138.73544311523438	 1225290.75
19722998.0	 518.8223266601562	 130.18760681152344	 528807.125
19722970.0	 493.1513671875	 144.90171813964844	 1271398.25
19722940.0	 520.4563598632812	 136.83212280273438	 696205.6875
19722912.0	 526.0938720703125	 130.6155548095703	 551229.125
19722852.0	 517.8499145507812	 127.99378204345703	 560974.625
19722822.0	 489.6305236816406	 148.8621368408203	 1178426.625
19722794.0	 498.1715087890625	 150.3230743408203	 1326752.75
19722764.0	 518.5032958984375	 128.0746307373047	 772056.5
19722502.0	 531.1620483398438	 148.9741668701172	 1381714.75
19722444.0	 562.7744750976562	 153.29928588867188	 891166.25
19722414.0	 545.998779296875	 121.87239837646484	 513011.6875
19722386.0	 518.7908935546875	 175.1047821044922	 1176562.25
19722356.0	 510.4621887207031	 178.9049835205078	 1258533.375
19722328.0	 525.6658325195312	 155.90586853027344	 1020658.625
19722300.0	 534.3318481445312	 148.23410034179688	 923587.3125
19721686.0	 548.0282592773438	 150.44775390625	 1376399.5
19721656.0	 510.2601623535156	 115.86937713623047	 1148247.0
19721626.0	 506.0354309082031	 128.70277404785156	 1108364.625
19721596.0	 514.771484375	 122.40104675292969	 600629.375
19721568.0	 492.43505859375	 139.5493927001953	 1030139.25
19721540.0	 490.2806396484375	 135.51785278320312	 1169824.875
19721510.0	 502.75732421875	 152.27615356445312	 1280789.75
19721482.0	 544.6279907226562	 136.92831420898438	 690349.1875
19721452.0	 500.3302307128906	 137.32546997070312	 1174085.0
19721422.0	 524.3912353515625	 143.6176300048828	 600561.9375
19721394.0	 510.960205078125	 149.6403350830078	 1222303.875
19721366.0	 517.2749633789062	 139.81639099121094	 1354904.625
19721334.0	 511.0697021484375	 152.34054565429688	 1047490.125
19721306.0	 514.9058227539062	 138.3151397705078	 1147149.25
19721276.0	 518.6934814453125	 138.66175842285156	 971428.9375
19721246.0	 518.2591552734375	 130.02615356445312	 621093.0
19721218.0	 508.90899658203125	 125.64055633544922	 587000.375
19721188.0	 478.7835693359375	 139.25146484375	 1085248.75
19721160.0	 484.4881896972656	 135.0936737060547	 916931.5625
19721132.0	 534.0199584960938	 126.59791564941406	 610982.75
19720692.0	 520.7570190429688	 171.34698486328125	 1405972.75
19720662.0	 537.3392333984375	 122.34988403320312	 639106.125
19720634.0	 539.3600463867188	 134.7465362548828	 765355.375
19720606.0	 532.5670776367188	 144.10890197753906	 1029043.0
19720548.0	 532.7499389648438	 139.80694580078125	 957908.8125
19720518.0	 527.3768920898438	 118.33690643310547	 617866.625
19720490.0	 508.8666076660156	 126.02452087402344	 802568.6875
19720372.0	 498.0921936035156	 140.01907348632812	 1098472.625
19720342.0	 520.4109497070312	 126.11092376708984	 599274.375
19720284.0	 507.2882385253906	 162.48428344726562	 1366029.875
19720254.0	 502.7066955566406	 140.15367126464844	 1157125.625
19720196.0	 486.0235900878906	 146.48782348632812	 1214230.875
19720168.0	 485.34088134765625	 153.4830780029297	 1321788.875
19720140.0	 494.003662109375	 135.66705322265625	 954765.875
19720108.0	 487.8197021484375	 136.062255859375	 931602.1875
19720080.0	 478.3171081542969	 150.77590942382812	 1188452.0
19720050.0	 509.486083984375	 134.25216674804688	 609616.0
19720022.0	 484.7517395019531	 152.3061065673828	 1144175.5
19719964.0	 512.0022583007812	 129.18055725097656	 708765.3125
19719934.0	 487.9350280761719	 138.17686462402344	 1177029.0
19719906.0	 487.9942932128906	 136.20321655273438	 773632.1875
19719876.0	 502.6558532714844	 131.80494689941406	 546375.1875
19719848.0	 499.64532470703125	 139.4800567626953	 631558.125
19719816.0	 504.9808044433594	 134.69493103027344	 1034987.875
19719788.0	 486.5716857910156	 148.58908081054688	 1485210.875
19719758.0	 490.1546325683594	 153.9876251220703	 1426477.25
19719730.0	 493.720947265625	 136.9669189453125	 1429075.875
19719700.0	 521.4462890625	 125.92680358886719	 802933.0
19719672.0	 510.4804382324219	 130.61810302734375	 1105160.0
19719644.0	 506.75909423828125	 142.20816040039062	 787901.0
19719614.0	 495.7649230957031	 129.10992431640625	 874703.875
19719584.0	 455.80615234375	 162.4700164794922	 887499.0
19719556.0	 474.33831787109375	 148.9141845703125	 755156.6875
19719524.0	 484.95086669921875	 142.8350372314453	 998860.9375
19719496.0	 456.7237548828125	 169.9370574951172	 954539.5625
19719468.0	 459.48065185546875	 151.87477111816406	 882808.75
19719438.0	 476.801025390625	 143.50303649902344	 1097426.0
19719410.0	 461.50030517578125	 133.52008056640625	 1011533.5625
19719380.0	 455.31048583984375	 162.6888427734375	 740445.625
19719350.0	 484.7507629394531	 141.5221405029297	 662301.9375
19719322.0	 509.9487609863281	 137.53451538085938	 636218.6875
19719294.0	 477.30218505859375	 132.03074645996094	 896831.1875
19719262.0	 475.1907958984375	 154.59242248535156	 914913.4375
19719234.0	 491.9339599609375	 135.1979522705078	 598730.0625
19719204.0	 489.6978759765625	 141.57806396484375	 982228.5625
19719176.0	 523.26513671875	 127.17294311523438	 655067.3125
19719116.0	 490.9142150878906	 142.41775512695312	 1250525.125
19719088.0	 493.0469665527344	 134.97853088378906	 849655.5
19719060.0	 483.43994140625	 145.50035095214844	 1090462.125
19719002.0	 488.2704772949219	 151.43995666503906	 1399807.5
19718972.0	 539.890869140625	 141.30519104003906	 1165742.125
19718942.0	 507.1681213378906	 149.11216735839844	 1545219.0
19718912.0	 514.87890625	 141.05564880371094	 1250106.375
19718854.0	 519.2388305664062	 138.591796875	 1241320.0
19718824.0	 521.659912109375	 125.74114990234375	 646300.5625
19718796.0	 495.011962890625	 142.4199676513672	 1507715.875
19718768.0	 512.9783325195312	 127.27135467529297	 646385.375
19718738.0	 513.6536254882812	 142.44418334960938	 771838.4375
19718708.0	 506.89019775390625	 135.7196044921875	 849238.0
19718680.0	 490.16839599609375	 152.50791931152344	 1370393.875
19718650.0	 500.3994445800781	 135.4175262451172	 787908.625
19718620.0	 493.0105895996094	 146.66598510742188	 1225179.375
19718592.0	 511.9267883300781	 132.9896240234375	 701397.0625
19718562.0	 493.4892272949219	 169.7594451904297	 1430382.0
19718534.0	 481.77435302734375	 149.34596252441406	 1282938.625
19718504.0	 494.1722412109375	 146.48684692382812	 1267198.375
19718474.0	 516.4647827148438	 137.76011657714844	 833498.875
19718446.0	 516.3673706054688	 143.7986297607422	 1030937.1875
19718328.0	 494.232177734375	 162.81021118164062	 1560944.5
19718300.0	 510.9643859863281	 140.62875366210938	 1299283.375
19718184.0	 517.4238891601562	 142.4002227783203	 1168722.625
19718154.0	 504.05889892578125	 150.9060516357422	 1506157.625
19718126.0	 511.5061340332031	 148.74740600585938	 1196383.75
19718096.0	 524.6943969726562	 126.88968658447266	 794810.75
19718036.0	 527.27099609375	 141.85516357421875	 1258551.625
19717978.0	 539.8743286132812	 135.97630310058594	 1040025.625
19717922.0	 524.259033203125	 134.8566131591797	 1169374.375
19717864.0	 517.2686767578125	 158.745361328125	 1547025.625
19717222.0	 513.8909912109375	 148.40646362304688	 1556505.125
19717190.0	 517.6461791992188	 137.0304718017578	 1466945.625
19717162.0	 526.04541015625	 119.2639389038086	 815010.625
19717132.0	 523.7207641601562	 131.75181579589844	 708490.4375
19717074.0	 494.98876953125	 142.59349060058594	 1535699.625
19717044.0	 532.6980590820312	 132.40835571289062	 844516.375
19717016.0	 502.76922607421875	 135.28070068359375	 1257675.5
19716988.0	 519.68798828125	 135.91151428222656	 711596.0625
19716958.0	 518.0115966796875	 137.2152862548828	 1002416.5625
19716930.0	 499.719970703125	 134.89019775390625	 1402058.375
19716898.0	 509.80755615234375	 138.584228515625	 1262785.0
19716870.0	 536.44140625	 125.04082489013672	 657709.3125
19716842.0	 520.6329345703125	 125.39586639404297	 618575.5
19716812.0	 518.5391235351562	 129.10865783691406	 659358.375
19716782.0	 499.3764343261719	 147.67193603515625	 1201586.25
19716754.0	 513.020751953125	 136.95729064941406	 1059778.25
19716520.0	 528.83544921875	 121.82506561279297	 1510089.875
19716490.0	 489.4015197753906	 154.4870147705078	 1240854.875
19716462.0	 473.2950744628906	 140.5261993408203	 974659.4375
19716432.0	 522.8026123046875	 147.71876525878906	 1421616.875
19716374.0	 539.1309204101562	 120.60584259033203	 641323.0
19716346.0	 493.2192077636719	 125.4453353881836	 574788.0
19716314.0	 478.67431640625	 127.12498474121094	 484393.78125
19716286.0	 501.22210693359375	 141.31277465820312	 800178.5625
19716256.0	 514.710205078125	 133.86663818359375	 1111500.875
19716228.0	 504.2234191894531	 158.333251953125	 1683752.125
19716084.0	 547.02734375	 139.49537658691406	 698108.25
19716022.0	 538.46142578125	 139.1235809326172	 730235.375
19715994.0	 514.02392578125	 148.70497131347656	 1301943.625
19715964.0	 504.4990539550781	 152.9398956298828	 1088249.125
19715936.0	 497.0610046386719	 158.0221710205078	 1048671.625
19715906.0	 493.87786865234375	 162.9825897216797	 1246835.75
19715878.0	 516.7904052734375	 144.1927490234375	 863615.0625
19715850.0	 510.62225341796875	 139.2638702392578	 1257828.75
19715820.0	 488.9809265136719	 135.72462463378906	 623100.375
19715792.0	 470.1460876464844	 141.61056518554688	 912769.375
19715760.0	 460.9325866699219	 177.48126220703125	 1215534.5
19715702.0	 498.4110107421875	 143.44619750976562	 790436.6875
19715672.0	 498.4679870605469	 131.3501434326172	 1140543.125
19715616.0	 510.0487060546875	 143.2890625	 1554360.875
19715586.0	 537.3932495117188	 137.68905639648438	 1061021.0
19715528.0	 505.6720886230469	 139.6114044189453	 1006542.875
19715500.0	 514.6000366210938	 121.75465393066406	 518740.15625
19715468.0	 494.3232421875	 140.6957550048828	 842615.5625
19715440.0	 498.86993408203125	 138.75222778320312	 701224.625
19715410.0	 506.7262878417969	 125.70219421386719	 833751.25
19715382.0	 506.9034118652344	 126.14411163330078	 564426.0
19715354.0	 500.1890563964844	 131.52932739257812	 850002.9375
19715324.0	 502.846435546875	 141.1875457763672	 1015365.4375
19715294.0	 501.26446533203125	 137.0288543701172	 1025417.8125
19715266.0	 508.9516906738281	 152.37933349609375	 1087991.125
19715236.0	 487.37872314453125	 154.69064331054688	 1096456.25
19715208.0	 494.0844421386719	 136.20068359375	 611201.25
19715148.0	 489.14215087890625	 158.00518798828125	 951054.0
19715118.0	 490.310302734375	 137.62203979492188	 831375.75
19715090.0	 476.280029296875	 153.017333984375	 910853.5
19715062.0	 477.2598876953125	 154.41322326660156	 463848.46875
19715032.0	 483.5720520019531	 145.36770629882812	 570144.0625
19715004.0	 480.1662902832031	 158.80313110351562	 589214.25
19714974.0	 469.3182373046875	 171.02040100097656	 975595.5
19714944.0	 492.1767578125	 148.15135192871094	 536038.875
19714916.0	 469.8893127441406	 155.55947875976562	 428554.5
19714884.0	 450.7898864746094	 163.14553833007812	 743050.875
19714856.0	 474.8871765136719	 151.01376342773438	 588379.5625
19714826.0	 461.1001281738281	 147.10020446777344	 653739.0625
19714798.0	 462.60272216796875	 157.06207275390625	 623325.5625
19714770.0	 461.2528076171875	 139.81838989257812	 557937.3125
19714740.0	 459.2994689941406	 131.06834411621094	 479225.46875
19714712.0	 443.0884704589844	 147.8660888671875	 791059.9375
19714682.0	 448.2972106933594	 141.10336303710938	 591892.125
19714654.0	 467.81982421875	 137.18814086914062	 556385.9375
19714622.0	 449.66412353515625	 148.5371551513672	 743466.25
19714592.0	 456.7721252441406	 151.16151428222656	 437388.78125
19714564.0	 446.0911865234375	 133.3358612060547	 391164.4375
19714536.0	 458.227783203125	 145.6875457763672	 458136.90625
19714506.0	 447.0037536621094	 166.3821258544922	 848518.4375
19714478.0	 448.5765686035156	 154.05459594726562	 617857.625
19714448.0	 473.288330078125	 193.79551696777344	 875765.5625
19714390.0	 472.4515686035156	 143.5292205810547	 513551.875
19714362.0	 458.8501281738281	 140.6915283203125	 474551.1875
19714330.0	 448.31854248046875	 143.55039978027344	 451014.46875
19714302.0	 460.35784912109375	 162.79066467285156	 479194.71875
19714272.0	 464.59710693359375	 150.2030029296875	 526962.625
19714244.0	 463.9958190917969	 160.47813415527344	 612749.625
19714186.0	 451.66912841796875	 159.7514190673828	 537083.5
19714156.0	 444.8463134765625	 146.8057403564453	 431336.21875
19714128.0	 422.37945556640625	 142.25953674316406	 472021.9375
19714098.0	 430.1983337402344	 152.13961791992188	 489301.75
19714070.0	 424.5287170410156	 139.08387756347656	 369099.09375
19714038.0	 419.7384948730469	 135.72764587402344	 365120.8125
19714010.0	 414.6662902832031	 131.0561981201172	 291023.8125
19713982.0	 403.4842529296875	 146.3510284423828	 257602.640625
19713952.0	 399.45111083984375	 148.10560607910156	 428194.53125
19713924.0	 406.14752197265625	 142.85487365722656	 266850.90625
19713892.0	 412.09796142578125	 142.79299926757812	 290414.53125
19713864.0	 406.55438232421875	 143.75640869140625	 279947.8125
19713836.0	 403.3103332519531	 130.14422607421875	 247383.484375
19713806.0	 396.5213623046875	 129.57652282714844	 219165.859375
19713776.0	 393.78033447265625	 134.1505889892578	 219637.984375
19713746.0	 392.74908447265625	 130.36331176757812	 219662.09375
19713718.0	 394.13037109375	 137.0624542236328	 234598.421875
19713690.0	 395.1045227050781	 138.0270538330078	 226785.0
19713660.0	 394.3811950683594	 144.91806030273438	 227352.25
19713632.0	 392.3720397949219	 136.74923706054688	 230464.46875
19713602.0	 392.22442626953125	 141.4285888671875	 248625.25
19713574.0	 396.22998046875	 142.7449493408203	 222678.53125
19713544.0	 384.205810546875	 136.09579467773438	 335336.78125
19713514.0	 389.91790771484375	 138.16981506347656	 254079.75
19713484.0	 392.4512939453125	 133.48077392578125	 238995.203125
19713456.0	 394.1570739746094	 134.24766540527344	 232063.171875
19713426.0	 397.3899841308594	 129.2448272705078	 258705.203125
19713398.0	 398.3807373046875	 134.2701873779297	 253542.078125
19713368.0	 394.73626708984375	 146.4979248046875	 461980.40625
19713340.0	 406.9793701171875	 127.37925720214844	 293438.625
19713310.0	 408.2183837890625	 121.03549194335938	 256188.5
19713282.0	 405.7987365722656	 144.3534393310547	 272029.3125
19713222.0	 401.826904296875	 132.90687561035156	 257283.625
19713194.0	 402.4416809082031	 121.01597595214844	 242814.890625
19713164.0	 400.6318054199219	 134.06930541992188	 262195.9375
19713134.0	 401.29486083984375	 136.4425048828125	 242164.109375
19713106.0	 398.63909912109375	 151.03199768066406	 262267.1875
19713076.0	 405.5323791503906	 131.95140075683594	 266395.28125
19713048.0	 403.3807373046875	 139.12059020996094	 222227.75
19713018.0	 399.75665283203125	 137.58018493652344	 236423.609375
19712990.0	 404.5337219238281	 136.02716064453125	 232578.875
19712960.0	 405.42413330078125	 148.5087127685547	 238024.390625
19712930.0	 402.97882080078125	 144.68321228027344	 241072.3125
19712902.0	 406.88916015625	 137.00376892089844	 234155.0625
19712872.0	 406.8753967285156	 135.26707458496094	 233314.9375
19712844.0	 404.6175537109375	 135.31101989746094	 233898.5625
19712812.0	 404.20074462890625	 133.88917541503906	 235618.0625
19712784.0	 409.1742858886719	 137.32083129882812	 239858.625
19712756.0	 399.78466796875	 143.03750610351562	 369761.375
19712698.0	 406.4483947753906	 133.408935546875	 252921.796875
19712666.0	 408.7503967285156	 131.73924255371094	 247124.40625
19712638.0	 413.1958923339844	 130.76914978027344	 279981.90625
19712610.0	 416.3175354003906	 133.8297119140625	 278954.21875
19712580.0	 407.522705078125	 137.21002197265625	 280991.0625
19712552.0	 404.41253662109375	 145.32125854492188	 333679.0625
19712522.0	 414.77105712890625	 133.54115295410156	 276822.65625
19712494.0	 414.01007080078125	 152.91983032226562	 322694.65625
19712464.0	 414.64849853515625	 129.35589599609375	 257072.796875
19712434.0	 406.1128234863281	 138.65313720703125	 367257.46875
19712406.0	 409.790771484375	 132.51597595214844	 270213.96875
19712376.0	 410.8407287597656	 135.52139282226562	 301048.5
19712346.0	 410.3274841308594	 131.95762634277344	 300950.59375
19712318.0	 415.27642822265625	 135.51248168945312	 283501.6875
19712260.0	 406.1255187988281	 137.50469970703125	 310092.125
19712230.0	 409.5280456542969	 126.2945785522461	 245402.109375
19712202.0	 408.34857177734375	 133.05210876464844	 298184.8125
19712172.0	 409.33465576171875	 135.96182250976562	 278914.1875
19712144.0	 411.7484130859375	 136.1670684814453	 302190.65625
19712114.0	 411.55352783203125	 127.12104034423828	 275324.78125
19712084.0	 407.81072998046875	 152.248291015625	 436427.28125
19712054.0	 416.0343322753906	 137.8858642578125	 533960.125
19712026.0	 415.30780029296875	 128.4303741455078	 287470.28125
19711996.0	 411.8957824707031	 132.02203369140625	 307706.59375
19711968.0	 410.8228454589844	 132.62020874023438	 298257.5
19711938.0	 414.45550537109375	 144.59898376464844	 335880.65625
19711910.0	 412.28167724609375	 151.83035278320312	 351545.59375
19711880.0	 407.4001770019531	 145.67359924316406	 393619.90625
19711852.0	 402.14788818359375	 126.30912780761719	 266017.46875
19711822.0	 405.1220397949219	 134.15921020507812	 289479.1875
19711792.0	 406.9474182128906	 150.1746368408203	 335230.3125
19711764.0	 408.1534729003906	 135.04415893554688	 313757.71875
19711734.0	 406.7521057128906	 136.9378204345703	 362586.9375
19711704.0	 408.6304931640625	 137.15005493164062	 349698.21875
19711676.0	 409.8201904296875	 134.20803833007812	 299075.40625
19711646.0	 414.0360107421875	 139.89492797851562	 308809.15625
19711618.0	 408.0976867675781	 145.5819854736328	 454834.0625
19711590.0	 414.3564453125	 135.85633850097656	 397917.59375
19711558.0	 416.470458984375	 142.08822631835938	 346135.78125
19711530.0	 410.98480224609375	 145.15187072753906	 525685.0
19711500.0	 420.5315246582031	 130.62648010253906	 320501.5
19711472.0	 421.9107360839844	 136.73904418945312	 337113.09375
19711442.0	 422.4561767578125	 132.11770629882812	 328217.84375
19711414.0	 424.12249755859375	 137.78744506835938	 387324.0
19711384.0	 415.5127868652344	 142.315185546875	 478684.0625
19711356.0	 411.7590637207031	 129.2229766845703	 295385.03125
19711296.0	 417.0689392089844	 134.32345581054688	 298689.5625
19711266.0	 405.8341369628906	 151.70175170898438	 514469.96875
19711238.0	 413.7958984375	 120.20235443115234	 266661.53125
19711210.0	 416.1351013183594	 136.43960571289062	 364593.5
19711180.0	 415.1711120605469	 139.26235961914062	 327882.375
19711150.0	 414.6429443359375	 142.0853729248047	 349698.21875
19711122.0	 417.8157043457031	 133.2230682373047	 320648.5625
19711092.0	 408.10638427734375	 143.8623504638672	 361041.4375
19711064.0	 411.7965087890625	 135.1952362060547	 323183.65625
19711034.0	 413.71124267578125	 129.96531677246094	 289685.84375
19711004.0	 408.1847839355469	 130.94003295898438	 273825.59375
19710976.0	 407.48284912109375	 140.17233276367188	 317514.875
19710918.0	 408.3059387207031	 140.39089965820312	 342364.40625
19710888.0	 410.30926513671875	 133.60813903808594	 312363.3125
19710858.0	 412.52783203125	 146.19061279296875	 370022.15625
19710830.0	 430.4033508300781	 137.87806701660156	 365066.09375
19710800.0	 411.2571105957031	 134.9172821044922	 264598.4375
19710772.0	 416.4262390136719	 137.9736328125	 322892.5
19710742.0	 412.7714538574219	 129.10203552246094	 305179.15625
19710712.0	 409.8963623046875	 138.7474822998047	 342392.375
19710684.0	 406.9365539550781	 140.10777282714844	 369613.9375
19710654.0	 405.1990966796875	 138.4738311767578	 400331.125
19710626.0	 410.82354736328125	 141.41400146484375	 429785.1875
19710596.0	 417.38470458984375	 128.9208526611328	 315882.1875
19710566.0	 416.4193420410156	 128.90798950195312	 287932.6875
19710538.0	 414.8557434082031	 122.75737762451172	 256011.25
19710510.0	 407.7537841796875	 129.20497131347656	 317491.375
19710478.0	 415.6220397949219	 140.16848754882812	 344571.84375
19710450.0	 415.0572509765625	 142.32077026367188	 401770.03125
19710420.0	 416.9673156738281	 138.61538696289062	 365363.28125
19710392.0	 411.16839599609375	 135.8721923828125	 374075.53125
19710334.0	 416.918701171875	 135.4546661376953	 377142.59375
19710304.0	 421.20843505859375	 132.066650390625	 314224.125
19710276.0	 412.8280334472656	 138.46713256835938	 409901.65625
19710246.0	 402.1445007324219	 145.8379669189453	 605039.0
19710216.0	 411.88671875	 129.96926879882812	 365417.59375
19710186.0	 423.29449462890625	 125.46963500976562	 310345.84375
19710158.0	 420.35406494140625	 132.05809020996094	 347267.21875
19710130.0	 412.5816345214844	 148.49977111816406	 401269.78125
19710100.0	 416.48675537109375	 135.59326171875	 423216.15625
19710072.0	 419.6886291503906	 140.88230895996094	 454205.96875
19710014.0	 421.3039245605469	 134.494140625	 357731.6875
19709984.0	 423.62957763671875	 126.10005950927734	 328922.4375
19709954.0	 414.9810791015625	 143.68161010742188	 489725.25
19709924.0	 417.694091796875	 128.5924530029297	 511592.375
19709894.0	 418.5171813964844	 154.18499755859375	 502789.25
19709866.0	 427.1056213378906	 140.5550994873047	 399230.25
19709838.0	 405.3420104980469	 147.99485778808594	 576794.5
19709808.0	 424.3299865722656	 133.3605194091797	 361787.625
19709780.0	 422.67010498046875	 125.3148422241211	 310165.28125
19709750.0	 415.1182556152344	 134.9464569091797	 464740.4375
19709722.0	 426.95343017578125	 132.95303344726562	 346272.59375
19709692.0	 423.102783203125	 135.93450927734375	 376930.40625
19709662.0	 416.41552734375	 136.80941772460938	 417970.59375
19709632.0	 416.0122985839844	 136.662353515625	 363098.1875
19709604.0	 411.5330810546875	 145.97850036621094	 449052.5
19709574.0	 404.9874572753906	 133.7502899169922	 298034.625
19709546.0	 408.0555419921875	 137.3579864501953	 330603.125
19709516.0	 405.1258239746094	 147.32469177246094	 441492.0625
19709488.0	 419.2903137207031	 130.94493103027344	 325944.21875
19709458.0	 404.95391845703125	 140.66212463378906	 519342.34375
19709430.0	 417.33612060546875	 137.04315185546875	 346927.34375
19709370.0	 412.477294921875	 148.08251953125	 540228.9375
19709340.0	 420.65924072265625	 134.97804260253906	 366962.90625
19709312.0	 409.6719970703125	 128.24560546875	 356578.71875
19709284.0	 405.8819885253906	 137.87767028808594	 340178.3125
19709254.0	 412.5252380371094	 133.9611358642578	 278362.71875
19709224.0	 406.8912048339844	 138.7458953857422	 301826.1875
19709196.0	 412.1299743652344	 138.1724090576172	 277008.46875
19709166.0	 419.05419921875	 140.9511260986328	 361952.46875
19709136.0	 410.6106872558594	 128.30145263671875	 256140.390625
19709106.0	 417.3765869140625	 144.95416259765625	 393780.34375
19709078.0	 409.5041198730469	 131.8883819580078	 298602.9375
19709050.0	 406.52099609375	 137.5408477783203	 277012.59375
19709020.0	 419.1306457519531	 138.3217315673828	 331280.0625
19708992.0	 405.77545166015625	 144.17958068847656	 507309.53125
19708962.0	 413.58404541015625	 141.0666961669922	 507881.875
19708934.0	 424.4083557128906	 137.7388916015625	 455799.0625
19708904.0	 407.4798583984375	 141.74217224121094	 371269.15625
19708872.0	 421.58551025390625	 136.04379272460938	 325459.625
19708844.0	 413.3507080078125	 132.62428283691406	 311811.15625
19708816.0	 403.0150451660156	 141.04364013671875	 482795.9375
19708786.0	 410.0035705566406	 154.23704528808594	 591036.25
19708758.0	 432.9969177246094	 131.11253356933594	 396456.1875
19708728.0	 435.78082275390625	 130.17465209960938	 352402.53125
19708700.0	 431.5390625	 144.79507446289062	 402662.6875
19708670.0	 421.1357727050781	 131.9955291748047	 345023.65625
19708642.0	 407.58746337890625	 146.1492919921875	 506421.5
19708614.0	 408.07000732421875	 130.92340087890625	 423263.125
19708582.0	 418.75982666015625	 134.99905395507812	 372065.53125
19708554.0	 407.2989196777344	 152.5892333984375	 503424.4375
19708524.0	 419.74609375	 132.1374969482422	 526260.0625
19708494.0	 416.5274353027344	 126.73438262939453	 323316.28125
19708466.0	 415.0401916503906	 139.88626098632812	 338275.09375
19708408.0	 414.78662109375	 126.78466796875	 293826.0
19708378.0	 408.5906066894531	 132.2882537841797	 277485.625
19708350.0	 405.15081787109375	 130.7376251220703	 299787.84375
19708320.0	 416.9190979003906	 131.11061096191406	 313191.125
19708290.0	 399.2230224609375	 149.81729125976562	 299730.8125
19708260.0	 401.1920471191406	 151.97666931152344	 275947.90625
19708232.0	 403.4745178222656	 139.70513916015625	 288383.78125
19708204.0	 410.89923095703125	 127.42424774169922	 272986.375
19708174.0	 403.1795959472656	 140.85232543945312	 290138.25
19708144.0	 406.1194763183594	 138.2615203857422	 304257.3125
19708116.0	 403.3868713378906	 134.2418670654297	 283371.4375
19708086.0	 404.8799133300781	 136.48826599121094	 259326.109375
19708056.0	 405.4444274902344	 134.10130310058594	 348127.25
19708028.0	 408.5500793457031	 129.25900268554688	 264726.21875
19707998.0	 406.2261657714844	 134.3776092529297	 275555.5625
19707970.0	 410.7289733886719	 126.16424560546875	 292567.96875
19707940.0	 405.5594177246094	 125.01803588867188	 291725.3125
19707912.0	 406.0601806640625	 134.0526123046875	 309211.90625
19707884.0	 397.53759765625	 151.87002563476562	 425922.15625
19707854.0	 407.7823791503906	 127.06262969970703	 251908.859375
19707824.0	 406.4515686035156	 136.79257202148438	 299554.84375
19707794.0	 406.9588623046875	 135.27029418945312	 253334.140625
19707764.0	 392.63641357421875	 147.82135009765625	 401711.09375
19707736.0	 408.0020446777344	 137.18569946289062	 306803.09375
19707706.0	 399.3714294433594	 151.11846923828125	 468239.15625
19707678.0	 403.585205078125	 139.1687774658203	 282200.46875
19707650.0	 395.2630920410156	 137.69931030273438	 392364.28125
19707620.0	 410.699462890625	 121.04922485351562	 268316.0625
19707592.0	 407.35205078125	 136.4595184326172	 306935.75
19707562.0	 412.53375244140625	 126.77381134033203	 340460.46875
19707532.0	 404.57708740234375	 134.49783325195312	 301712.78125
19707502.0	 404.8851013183594	 128.80300903320312	 278509.9375
19707444.0	 402.541015625	 135.3936004638672	 277879.34375
19707386.0	 408.5512390136719	 132.7210693359375	 367981.15625
19707358.0	 407.0754699707031	 129.55943298339844	 292348.65625
19707328.0	 402.9562072753906	 141.27728271484375	 345982.625
19707300.0	 402.0880432128906	 137.12060546875	 269624.9375
19707268.0	 401.6744689941406	 130.76821899414062	 256993.65625
19707240.0	 404.4797058105469	 135.36007690429688	 274284.625
19707210.0	 401.9222412109375	 133.30015563964844	 259131.1875
19707182.0	 394.1187438964844	 139.8339385986328	 325297.625
19707154.0	 396.1444396972656	 139.29266357421875	 328883.40625
19707124.0	 398.9137268066406	 140.65821838378906	 254554.921875
19707096.0	 394.47283935546875	 158.28182983398438	 378429.71875
19707066.0	 391.9333801269531	 140.5899200439453	 331267.25
19707036.0	 401.8547668457031	 151.689453125	 289352.625
19707006.0	 394.56396484375	 145.27366638183594	 417519.78125
19706976.0	 400.0377502441406	 131.5575714111328	 276218.1875
19706948.0	 400.2486572265625	 133.15933227539062	 342454.4375
19706918.0	 391.0041198730469	 149.0959014892578	 420262.34375
19706626.0	 387.30224609375	 162.5570831298828	 603836.125
19706598.0	 395.52691650390625	 136.1873321533203	 395354.59375
19706570.0	 410.7925109863281	 142.23928833007812	 363404.03125
19706540.0	 411.2298889160156	 141.20225524902344	 358776.53125
19706480.0	 389.9039611816406	 149.13157653808594	 388364.03125
19706452.0	 400.7366027832031	 140.28909301757812	 357852.375
19706394.0	 395.6627197265625	 138.81234741210938	 390121.5625
19706364.0	 398.04522705078125	 138.518310546875	 325779.0625
19706336.0	 402.2569885253906	 142.8185272216797	 272559.9375
19706306.0	 398.5600280761719	 150.45654296875	 283025.1875
19706278.0	 401.6889953613281	 133.57106018066406	 258054.015625
19706248.0	 408.7357177734375	 138.13108825683594	 300799.03125
19706218.0	 415.5124816894531	 154.5424041748047	 518969.03125
19706190.0	 408.91363525390625	 133.83053588867188	 253491.828125
19706160.0	 409.179443359375	 136.7347869873047	 276809.1875
19706132.0	 409.17437744140625	 145.58738708496094	 380236.4375
19706102.0	 396.7870788574219	 146.635009765625	 463669.46875
19706074.0	 418.4610290527344	 136.01686096191406	 310274.4375
19706044.0	 414.50714111328125	 137.65420532226562	 357653.46875
19706016.0	 411.1922607421875	 159.6682891845703	 556297.6875
19705984.0	 431.8329772949219	 144.98037719726562	 420787.34375
19705956.0	 428.985107421875	 151.6421661376953	 663231.1875
19705926.0	 437.4898376464844	 176.34957885742188	 834814.6875
19705898.0	 453.3923645019531	 144.58505249023438	 687800.4375
19705868.0	 430.0419921875	 126.45365142822266	 315956.96875
19705840.0	 424.978759765625	 149.53652954101562	 544197.6875
19705810.0	 436.9456481933594	 151.6708526611328	 552781.8125
19705782.0	 475.6524658203125	 136.64035034179688	 535998.25
19705752.0	 457.2540588378906	 167.46485900878906	 975593.8125
19705722.0	 465.51025390625	 143.8697052001953	 636272.75
19705692.0	 492.8152160644531	 165.54391479492188	 581150.25
19705664.0	 449.2850646972656	 137.4602813720703	 623983.6875
19705636.0	 488.0027160644531	 161.74960327148438	 622382.3125
19705606.0	 479.8787536621094	 163.94862365722656	 1059338.625
19705578.0	 505.1615295410156	 159.04833984375	 815242.4375
19705490.0	 509.430908203125	 150.10980224609375	 857840.4375
19705458.0	 484.0244140625	 208.48765563964844	 1029913.625
19705430.0	 511.4729919433594	 177.78594970703125	 1383600.25
19705402.0	 512.3323974609375	 137.4493865966797	 716537.3125
19705372.0	 499.7273254394531	 159.6939697265625	 717712.125
19705344.0	 482.55938720703125	 159.7429962158203	 580016.0625
19705314.0	 462.2637939453125	 154.89404296875	 607560.4375
19705286.0	 433.5126953125	 144.6748809814453	 343259.125
19705256.0	 442.7647705078125	 147.22311401367188	 414899.78125
19705228.0	 440.03448486328125	 153.68870544433594	 531326.375
19705196.0	 452.03912353515625	 162.82107543945312	 488835.0
19705168.0	 432.3222351074219	 143.3583984375	 365315.28125
19705138.0	 472.55718994140625	 102.95146942138672	 322102.03125
19705110.0	 477.5440979003906	 143.83944702148438	 593930.8125
19705080.0	 471.2535095214844	 139.64236450195312	 465590.75
19705052.0	 457.53741455078125	 156.92237854003906	 719804.375
19705024.0	 476.3680114746094	 137.36509704589844	 501596.625
19704994.0	 463.303955078125	 142.2525177001953	 500383.59375
19704966.0	 443.4673156738281	 137.69471740722656	 483710.5625
19704934.0	 446.64739990234375	 146.9940643310547	 425165.15625
19704904.0	 451.5323486328125	 140.55824279785156	 441612.375
19704876.0	 442.0696105957031	 151.47946166992188	 419483.21875
19704846.0	 442.8278503417969	 141.0615997314453	 386238.21875
19704790.0	 438.3094787597656	 173.41958618164062	 426673.4375
19704760.0	 428.6436462402344	 154.22264099121094	 363717.6875
19704732.0	 427.5564880371094	 177.2733154296875	 435492.4375
19704702.0	 426.7640075683594	 151.6873016357422	 494047.3125
19704672.0	 433.1717224121094	 163.93096923828125	 380083.46875
19704644.0	 439.1583557128906	 154.5254364013672	 414135.75
19704614.0	 438.1026916503906	 167.10313415527344	 568961.875
19704556.0	 442.0628662109375	 167.82786560058594	 441704.21875
19704526.0	 422.4295654296875	 158.580810546875	 307909.3125
19704498.0	 438.7310485839844	 187.1248779296875	 419777.90625
19704468.0	 440.79486083984375	 166.4483184814453	 414475.46875
19704438.0	 428.0865478515625	 157.49913024902344	 419348.0
19704410.0	 433.0396728515625	 171.310791015625	 365952.375
19704380.0	 430.2922668457031	 157.0137176513672	 366588.15625
19704352.0	 425.7222900390625	 155.3068389892578	 322677.0
19704322.0	 419.14080810546875	 154.2936248779297	 318418.75
19704294.0	 419.6332092285156	 150.0493621826172	 342446.8125
19704264.0	 424.732421875	 139.96829223632812	 315844.21875
19704236.0	 431.5984191894531	 153.21282958984375	 381226.25
19704206.0	 429.19952392578125	 151.90261840820312	 441220.84375
19704174.0	 423.65008544921875	 167.54620361328125	 484143.53125
19704146.0	 427.4828186035156	 144.664306640625	 413192.90625
19704088.0	 436.7554016113281	 161.2671356201172	 373059.71875
19704060.0	 434.4236145019531	 142.6144256591797	 359027.8125
19704030.0	 429.6833801269531	 144.906494140625	 383223.59375
19704002.0	 435.1995849609375	 147.89202880859375	 396485.15625
19703972.0	 427.36376953125	 142.12681579589844	 293313.09375
19703944.0	 428.5494079589844	 162.7434539794922	 338394.5625
19703912.0	 427.1280517578125	 152.36935424804688	 303799.6875
19703884.0	 420.8450012207031	 149.8138427734375	 318509.4375
19703854.0	 415.54150390625	 152.33566284179688	 406502.0
19703824.0	 422.86102294921875	 148.33265686035156	 325402.78125
19703796.0	 423.2465515136719	 145.47084045410156	 323618.46875
19703768.0	 422.599365234375	 152.13133239746094	 327556.375
19703738.0	 423.4967346191406	 167.4556427001953	 349600.375
19703710.0	 419.9217834472656	 150.1168670654297	 302557.0
19703682.0	 418.0689392089844	 148.40660095214844	 304182.21875
19703650.0	 420.3357849121094	 153.89434814453125	 312666.0625
19703592.0	 422.6007080078125	 157.38754272460938	 320200.8125
19703564.0	 421.72076416015625	 140.55413818359375	 292665.84375
19703536.0	 422.9125671386719	 149.77906799316406	 304347.375
19703506.0	 425.9971008300781	 150.69244384765625	 321964.375
19703476.0	 423.395751953125	 155.77816772460938	 341134.96875
19703446.0	 428.15765380859375	 189.6278533935547	 342600.65625
19703416.0	 428.9441833496094	 153.4512939453125	 365879.84375
19703388.0	 428.54791259765625	 155.45794677734375	 380360.59375
19703358.0	 433.0539855957031	 167.0098876953125	 336630.96875
19703330.0	 423.0089111328125	 162.5603790283203	 408143.9375
19703300.0	 431.4941711425781	 164.82373046875	 371442.21875
19703272.0	 429.994873046875	 156.9488067626953	 350167.0625
19703244.0	 426.8378601074219	 150.2965850830078	 329667.96875
19703214.0	 419.17401123046875	 155.99368286132812	 449659.03125
19703186.0	 421.8446960449219	 151.8150634765625	 440645.0
19703154.0	 430.4992980957031	 163.112548828125	 349372.78125
19703124.0	 430.0658264160156	 176.83729553222656	 391624.15625
19703066.0	 422.7917175292969	 165.75173950195312	 490775.125
19703038.0	 426.6209411621094	 181.4342803955078	 370199.875
19703010.0	 428.91741943359375	 163.25804138183594	 335789.53125
19702980.0	 438.9756164550781	 190.54454040527344	 378151.625
19702952.0	 431.3161315917969	 174.93634033203125	 796975.4375
19702922.0	 420.4009704589844	 139.6712646484375	 358504.6875
19702892.0	 431.0248107910156	 154.6260223388672	 349346.0625
19702834.0	 459.4078063964844	 171.95791625976562	 548651.25
19702804.0	 463.1405334472656	 169.84278869628906	 514111.09375
19702776.0	 452.28826904296875	 163.1617889404297	 573091.875
19702746.0	 447.86273193359375	 226.8154754638672	 640169.3125
19702718.0	 452.21417236328125	 161.90777587890625	 491528.1875
19702690.0	 454.5187683105469	 176.3263702392578	 622454.4375
19702630.0	 451.13311767578125	 150.1040802001953	 419537.375
19702600.0	 449.716064453125	 169.4314727783203	 449171.5
19702484.0	 440.2758483886719	 161.16751098632812	 511244.8125
19702456.0	 426.33746337890625	 182.48583984375	 728772.9375
19702426.0	 436.29937744140625	 159.32415771484375	 431985.9375
19702396.0	 424.7847595214844	 204.548828125	 591114.4375
19702366.0	 418.8750305175781	 183.1991424560547	 647230.0
19702338.0	 447.507568359375	 202.5435333251953	 475649.59375
19702308.0	 426.1106262207031	 182.22523498535156	 537366.0
19702280.0	 438.52227783203125	 155.5764617919922	 356520.4375
19702250.0	 436.16925048828125	 171.45770263671875	 460383.875
19702222.0	 441.022216796875	 176.3440704345703	 432070.15625
19702192.0	 440.5736389160156	 158.68661499023438	 419705.09375
19702162.0	 433.1861572265625	 204.52874755859375	 685001.75
19702132.0	 450.7035827636719	 219.76853942871094	 449815.8125
19702104.0	 441.3479919433594	 291.32305908203125	 746538.9375
19702076.0	 453.1833801269531	 194.96075439453125	 463017.0625
19702046.0	 448.3766174316406	 191.16659545898438	 690511.0
19702016.0	 458.2857971191406	 166.35821533203125	 402973.96875
19701988.0	 462.78167724609375	 241.78427124023438	 711864.1875
19701958.0	 470.3895263671875	 206.46282958984375	 435189.65625
19701898.0	 474.7499084472656	 210.58914184570312	 704175.625
19701870.0	 473.0335388183594	 184.03273010253906	 580286.5
19701842.0	 454.0998229980469	 262.2651062011719	 428628.0
19701784.0	 465.5615234375	 169.69383239746094	 419749.71875
19701754.0	 455.4031066894531	 184.83865356445312	 398220.4375
19701726.0	 453.0269470214844	 155.10719299316406	 329369.4375
19701668.0	 473.1120300292969	 151.09214782714844	 385120.25
19701636.0	 439.06976318359375	 157.28109741210938	 390844.25
19701608.0	 427.8714599609375	 183.50413513183594	 660887.0
19701578.0	 453.1116027832031	 198.30194091796875	 517268.78125
19701550.0	 437.1629943847656	 148.650146484375	 384454.34375
19701522.0	 431.20526123046875	 175.1568603515625	 394795.78125
19701492.0	 433.3327331542969	 156.02630615234375	 366723.25
19701462.0	 434.8865661621094	 177.29310607910156	 372721.40625
19701434.0	 432.5025939941406	 185.5757598876953	 420760.1875
19701404.0	 429.8819580078125	 159.65640258789062	 360947.40625
19701376.0	 409.51080322265625	 148.37718200683594	 445829.21875
19701346.0	 413.01220703125	 141.62086486816406	 253079.90625
19701316.0	 404.6006164550781	 143.39845275878906	 344825.15625
19701288.0	 415.2317810058594	 152.0820770263672	 313521.90625
19701258.0	 410.2458190917969	 140.1694793701172	 275304.03125
19701230.0	 410.92626953125	 152.65577697753906	 283543.09375
19701200.0	 413.9642028808594	 150.41268920898438	 282756.25
19701172.0	 415.4444580078125	 147.5787811279297	 293897.0
19701140.0	 412.38653564453125	 148.80604553222656	 321686.34375
19701112.0	 414.3658447265625	 157.02210998535156	 335385.21875
19701082.0	 413.7754211425781	 151.9974365234375	 364297.46875
19701054.0	 414.43426513671875	 167.21652221679688	 453741.625
19701026.0	 421.1416015625	 154.39596557617188	 326535.0
19700996.0	 427.5508728027344	 147.4466094970703	 305914.5625
19700966.0	 427.1944274902344	 151.82662963867188	 358832.71875
19700938.0	 433.7740478515625	 146.38807678222656	 312000.03125
19700908.0	 437.0755920410156	 166.00660705566406	 379995.0625
19700878.0	 431.6935729980469	 165.51918029785156	 453209.59375
19700848.0	 432.7754821777344	 155.49855041503906	 362188.5625
19700820.0	 432.155517578125	 168.987548828125	 380096.65625
19700790.0	 442.96917724609375	 165.66799926757812	 330004.625
19700762.0	 433.81378173828125	 168.55438232421875	 330243.90625
19700704.0	 434.1081237792969	 163.51544189453125	 352376.625
19700676.0	 427.6045837402344	 151.2275848388672	 328593.625
19700646.0	 422.8316345214844	 151.08328247070312	 309254.65625
19700616.0	 427.68548583984375	 165.19371032714844	 361602.9375
19700586.0	 427.62799072265625	 146.05984497070312	 347234.53125
19700558.0	 437.8606262207031	 166.9529266357422	 333689.40625
19700528.0	 432.6282958984375	 161.80702209472656	 400151.53125
19700500.0	 447.30133056640625	 170.55250549316406	 417150.28125
19700470.0	 441.03045654296875	 172.52960205078125	 368193.53125
19700442.0	 416.8538513183594	 137.53634643554688	 296752.0625
19700412.0	 414.9121398925781	 136.79779052734375	 317669.03125
19700382.0	 414.996337890625	 136.8688507080078	 272878.3125
19700354.0	 412.9517822265625	 133.6884307861328	 272196.125
19700324.0	 410.4597473144531	 145.70729064941406	 277213.0
19700296.0	 414.67718505859375	 136.7286834716797	 299971.1875
19700266.0	 405.449951171875	 141.00770568847656	 303836.6875
19700236.0	 422.5793151855469	 147.82054138183594	 309630.28125
19700208.0	 411.1430358886719	 149.6660614013672	 324412.96875
19700176.0	 415.9211730957031	 141.11947631835938	 288920.6875
19700148.0	 409.755126953125	 149.52960205078125	 417593.375
19700118.0	 422.08428955078125	 151.099853515625	 361193.625
19700062.0	 423.17236328125	 149.92173767089844	 327063.0
19700032.0	 427.4112854003906	 159.120361328125	 362295.40625
19700004.0	 423.9696350097656	 131.4492645263672	 303687.28125
19699976.0	 415.99908447265625	 150.52349853515625	 333915.4375
19699946.0	 415.9481201171875	 154.72607421875	 387241.09375
19699916.0	 419.0447998046875	 148.28082275390625	 303113.375
19699884.0	 426.54150390625	 154.03451538085938	 341310.71875
19699856.0	 424.2623596191406	 148.5338134765625	 330471.84375
19699828.0	 426.6393127441406	 140.2376708984375	 291214.875
19699798.0	 419.955322265625	 164.43453979492188	 482581.09375
19699742.0	 420.8511962890625	 149.37008666992188	 303218.375
19699712.0	 421.8454284667969	 152.405517578125	 309409.25
19699682.0	 408.6696472167969	 125.22533416748047	 267028.875
19699652.0	 425.32489013671875	 154.01173400878906	 345397.03125
19699624.0	 430.38262939453125	 163.14903259277344	 324454.09375
19699596.0	 435.82513427734375	 165.52442932128906	 326032.625
19699566.0	 435.3716735839844	 171.3689422607422	 378637.9375
19699536.0	 428.9241027832031	 155.398193359375	 325829.5
19699508.0	 434.8200378417969	 172.85914611816406	 354289.84375
19699478.0	 438.85546875	 147.9647216796875	 343932.125
19699450.0	 446.3422546386719	 176.81427001953125	 414346.4375
19699418.0	 435.67718505859375	 168.8276824951172	 378594.25
19699390.0	 432.27825927734375	 178.88677978515625	 533213.5625
19699362.0	 442.6274108886719	 175.63900756835938	 441935.6875
19699332.0	 440.5193786621094	 181.64813232421875	 516508.0
19699304.0	 443.0933532714844	 188.52679443359375	 424803.84375
19699274.0	 451.6123046875	 224.62200927734375	 462529.40625
19699246.0	 439.3175964355469	 153.34657287597656	 367227.34375
19699216.0	 436.486572265625	 153.91339111328125	 374676.0625
19699186.0	 459.2123107910156	 228.8744659423828	 442440.125
19699156.0	 439.6643371582031	 158.04217529296875	 383757.9375
19699128.0	 432.6747741699219	 164.82789611816406	 666805.875
19699098.0	 441.1887512207031	 160.06918334960938	 405228.15625
19699070.0	 440.41162109375	 171.3172607421875	 411555.6875
19699040.0	 435.5345764160156	 163.08938598632812	 378052.96875
19699012.0	 432.6053771972656	 160.38546752929688	 484492.96875
19698982.0	 435.94219970703125	 165.5834197998047	 398929.4375
19698952.0	 436.4739990234375	 165.9147186279297	 418946.1875
19698924.0	 435.3122253417969	 172.16847229003906	 388502.875
19698894.0	 432.76373291015625	 140.73724365234375	 322527.71875
19698866.0	 434.9075012207031	 158.76779174804688	 338720.65625
19698836.0	 434.9566955566406	 162.05650329589844	 393838.375
19698778.0	 435.72210693359375	 184.16746520996094	 362819.75
19698750.0	 439.89483642578125	 155.43887329101562	 344572.125
19698720.0	 433.7047119140625	 168.94786071777344	 419649.09375
19698690.0	 438.8084716796875	 164.41322326660156	 437871.5
19698660.0	 444.82086181640625	 183.0550079345703	 413697.875
19698632.0	 435.6011657714844	 159.1592254638672	 358065.03125
19698604.0	 434.6908264160156	 156.1589813232422	 358630.875
19698574.0	 426.6629638671875	 162.91212463378906	 486189.21875
19698546.0	 440.9517517089844	 164.47853088378906	 407502.46875
19698516.0	 441.29180908203125	 203.51934814453125	 486433.875
19698488.0	 425.38665771484375	 164.81451416015625	 387311.71875
19698456.0	 447.4460754394531	 176.34584045410156	 424391.84375
19698426.0	 430.48419189453125	 172.79481506347656	 338540.875
19698398.0	 429.8621520996094	 149.2959442138672	 340169.875
19698368.0	 419.9497375488281	 150.31387329101562	 332717.125
19698340.0	 419.6073303222656	 155.76341247558594	 329897.21875
19698310.0	 422.4306945800781	 147.78997802734375	 319562.65625
19698282.0	 421.42181396484375	 143.89878845214844	 290683.34375
19698254.0	 425.9024353027344	 157.64013671875	 339306.25
19698222.0	 427.1253356933594	 159.6986083984375	 335498.28125
19698194.0	 425.688232421875	 149.5048065185547	 349432.15625
19698164.0	 424.9454650878906	 155.7401580810547	 337025.28125
19698136.0	 432.5013732910156	 146.16200256347656	 351264.125
19698108.0	 426.4591979980469	 159.95938110351562	 312085.59375
19698076.0	 422.8503723144531	 152.94212341308594	 347436.15625
19698048.0	 420.53985595703125	 152.3806915283203	 318548.09375
19698020.0	 419.928955078125	 148.28106689453125	 417380.375
19697990.0	 424.67742919921875	 154.98728942871094	 337137.9375
19697960.0	 425.9698791503906	 166.26156616210938	 331693.4375
19697932.0	 430.3721008300781	 149.2162628173828	 333925.0625
19697902.0	 431.66046142578125	 151.88931274414062	 349404.96875
19697874.0	 432.403076171875	 160.19972229003906	 375905.125
19697788.0	 436.43896484375	 158.7449188232422	 357056.96875
19697758.0	 424.65032958984375	 156.8213653564453	 504074.5625
19697726.0	 433.4005126953125	 156.77569580078125	 369155.875
19697696.0	 430.7999572753906	 144.2487030029297	 350111.71875
19697668.0	 434.1026611328125	 156.04818725585938	 354827.71875
19697640.0	 445.9388427734375	 179.17893981933594	 435368.71875
19697610.0	 439.7742004394531	 193.1229248046875	 451947.5
19697582.0	 450.3572998046875	 145.95384216308594	 404528.03125
19697552.0	 445.0182800292969	 176.37704467773438	 376995.4375
19697524.0	 430.3304138183594	 177.6053466796875	 537630.9375
19697494.0	 447.01953125	 159.6630401611328	 401207.0
19697464.0	 430.062255859375	 152.82073974609375	 480346.0
19697436.0	 437.60528564453125	 173.11471557617188	 384676.71875
19697406.0	 425.55633544921875	 163.08262634277344	 677321.625
19697376.0	 441.7694396972656	 161.04443359375	 416153.21875
19697348.0	 431.669189453125	 161.703125	 491096.78125
19697320.0	 446.41717529296875	 174.74838256835938	 390910.0
19697290.0	 446.59039306640625	 163.16754150390625	 374214.5
19697260.0	 451.7290954589844	 176.9585723876953	 408930.625
19697230.0	 462.7287292480469	 201.34347534179688	 448732.0625
19697202.0	 458.399169921875	 188.64512634277344	 600999.125
19697172.0	 447.8254089355469	 169.4827117919922	 432026.4375
19697144.0	 453.8056335449219	 177.88992309570312	 398658.28125
19697116.0	 461.4173583984375	 159.12184143066406	 434296.03125
19697086.0	 471.66357421875	 225.5802459716797	 530773.375
19697058.0	 476.3818359375	 193.9974822998047	 565355.375
19697028.0	 470.89141845703125	 193.88763427734375	 1019365.1875
19696996.0	 480.7629089355469	 178.4794158935547	 622354.0625
19696968.0	 466.1435546875	 190.2186279296875	 884874.0
19696940.0	 484.519775390625	 162.16152954101562	 605379.3125
19696910.0	 455.60906982421875	 153.75674438476562	 419891.78125
19696852.0	 455.3292236328125	 175.8682861328125	 449031.75
19696822.0	 453.049072265625	 175.42636108398438	 451311.3125
19696794.0	 454.425537109375	 155.78591918945312	 369882.90625
19696764.0	 437.04779052734375	 212.84402465820312	 527671.0
19696736.0	 439.27386474609375	 171.03890991210938	 474537.71875
19696706.0	 451.6850280761719	 167.7989959716797	 401778.4375
19696678.0	 454.5329284667969	 254.91104125976562	 416894.4375
19696648.0	 459.4367370605469	 156.40171813964844	 436879.6875
19696618.0	 456.427734375	 156.056640625	 401248.4375
19696590.0	 451.5736083984375	 206.24197387695312	 538971.875
19696560.0	 456.33856201171875	 213.4832305908203	 447515.84375
19696530.0	 460.38592529296875	 207.96144104003906	 637902.0625
19696500.0	 469.49749755859375	 166.87611389160156	 412917.625
19696472.0	 431.6576843261719	 142.5398712158203	 338578.65625
19696442.0	 429.76727294921875	 172.7184295654297	 520179.6875
19696414.0	 440.1695251464844	 153.20887756347656	 394139.4375
19696386.0	 438.05157470703125	 193.78317260742188	 348385.0625
19696356.0	 432.6506652832031	 148.01004028320312	 361058.6875
19696328.0	 432.8366394042969	 155.93917846679688	 336993.0
19696296.0	 431.5121154785156	 150.31040954589844	 333134.25
19696268.0	 435.36651611328125	 164.73609924316406	 358640.46875
19696238.0	 435.32916259765625	 143.478759765625	 364936.625
19696210.0	 442.5234375	 156.09906005859375	 408624.21875
19696180.0	 441.8238830566406	 170.28192138671875	 347585.96875
19696152.0	 443.9234619140625	 157.08766174316406	 387247.375
19696122.0	 443.87841796875	 161.76539611816406	 503107.15625
19696094.0	 444.4406433105469	 181.60659790039062	 400236.25
19696064.0	 447.8882141113281	 161.94483947753906	 429822.59375
19696034.0	 454.57867431640625	 174.84957885742188	 402111.4375
19696006.0	 457.6000061035156	 267.22198486328125	 666558.75
19695976.0	 445.8599548339844	 167.0638885498047	 546215.5
19695948.0	 435.3257141113281	 174.4605712890625	 400543.125
19695890.0	 429.750732421875	 163.5416717529297	 348514.34375
19695860.0	 431.2450866699219	 155.82765197753906	 361563.28125
19695828.0	 420.6091003417969	 139.46591186523438	 287856.59375
19695800.0	 402.1328430175781	 154.25286865234375	 265253.65625
19695772.0	 403.0118408203125	 133.57960510253906	 227848.75
19695742.0	 405.6629943847656	 154.1481170654297	 247787.953125
19695714.0	 407.2017517089844	 131.2746124267578	 244243.8125
19695686.0	 404.58135986328125	 114.58331298828125	 271612.625
19695656.0	 418.17767333984375	 122.69450378417969	 271074.0
19695628.0	 402.90814208984375	 136.02359008789062	 222803.796875
19695596.0	 403.7740783691406	 150.64610290527344	 240944.328125
19695566.0	 402.7059631347656	 164.6101837158203	 251743.34375
19695538.0	 404.1785583496094	 133.94598388671875	 230153.734375
19695508.0	 400.5390930175781	 134.63539123535156	 253267.765625
19695480.0	 401.61383056640625	 131.9946746826172	 230899.09375
19695452.0	 396.09844970703125	 145.3872833251953	 361940.625
19695422.0	 404.5633239746094	 135.37814331054688	 203873.71875
19695394.0	 399.80450439453125	 134.0572509765625	 245864.875
19695366.0	 405.236083984375	 152.96197509765625	 236829.296875
19695334.0	 402.94189453125	 135.0970001220703	 248414.3125
19695306.0	 402.7318420410156	 138.2395782470703	 230867.0
19695276.0	 404.0694885253906	 127.76626586914062	 227976.34375
19695248.0	 406.9400329589844	 131.58743286132812	 219514.84375
19695218.0	 401.8662414550781	 127.9378662109375	 232067.546875
19695188.0	 403.446044921875	 135.91036987304688	 224727.9375
19695160.0	 406.9180603027344	 130.530517578125	 234112.671875
19695132.0	 407.5284423828125	 127.77985382080078	 224020.875
19695100.0	 408.6576843261719	 135.36354064941406	 230537.75
19695072.0	 399.6448059082031	 126.88220977783203	 253822.21875
19695042.0	 401.9461364746094	 131.96121215820312	 207350.640625
19695014.0	 404.757080078125	 137.19334411621094	 216185.765625
19694984.0	 400.6942443847656	 126.80244445800781	 227048.03125
19694926.0	 405.4179382324219	 134.596923828125	 209502.125
19694898.0	 404.0860290527344	 145.06568908691406	 219452.515625
19694868.0	 401.6706237792969	 138.6385040283203	 230216.3125
19694838.0	 403.0113525390625	 140.060791015625	 335837.59375
19694808.0	 409.06365966796875	 127.76822662353516	 251993.90625
19694780.0	 406.84161376953125	 135.0986785888672	 224881.34375
19694752.0	 402.85211181640625	 138.24803161621094	 224213.0625
19694722.0	 402.4588623046875	 147.17816162109375	 226914.1875
19694694.0	 400.891845703125	 135.55845642089844	 215716.4375
19694664.0	 404.0017395019531	 143.4526824951172	 236581.1875
19694634.0	 405.0049133300781	 132.3779754638672	 225269.140625
19694604.0	 401.36761474609375	 132.52842712402344	 208598.484375
19694576.0	 402.6353759765625	 132.9630126953125	 201639.859375
19694546.0	 403.37548828125	 137.16769409179688	 225387.125
19694518.0	 405.96661376953125	 136.01400756835938	 217951.34375
19694488.0	 403.62091064453125	 139.73350524902344	 228309.515625
19694460.0	 400.164794921875	 137.8987579345703	 254486.984375
19694430.0	 405.5398254394531	 136.94219970703125	 203480.453125
19694400.0	 400.4367980957031	 132.09268188476562	 311861.53125
19694372.0	 402.0849304199219	 136.7803497314453	 245324.46875
19694342.0	 393.9371032714844	 146.60809326171875	 357274.375
19694314.0	 402.3798828125	 148.3993377685547	 226984.46875
19694284.0	 401.3441467285156	 139.35047912597656	 229618.875
19694256.0	 403.161865234375	 135.19351196289062	 228741.734375
19694226.0	 405.9073791503906	 129.1669158935547	 229642.25
19694198.0	 405.8522644042969	 128.8944854736328	 217236.484375
19694166.0	 403.3442687988281	 133.14669799804688	 217202.390625
19694138.0	 399.71490478515625	 133.11090087890625	 271937.03125
19694108.0	 399.4144287109375	 149.4210205078125	 304251.625
19694080.0	 405.1815185546875	 129.69473266601562	 234526.203125
19694052.0	 398.0364074707031	 132.8690185546875	 317919.65625
19694022.0	 409.1840515136719	 131.93516540527344	 235923.734375
19693964.0	 406.2620849609375	 128.54014587402344	 256750.015625
19693932.0	 406.7347412109375	 139.6666717529297	 271291.28125
19693904.0	 405.549072265625	 135.8656463623047	 236736.765625
19693874.0	 405.6697082519531	 131.73440551757812	 303718.75
19693846.0	 411.2616882324219	 126.12372589111328	 256746.609375
19693818.0	 403.0660705566406	 138.99948120117188	 257043.625
19693788.0	 399.8104553222656	 147.56256103515625	 282315.59375
19693758.0	 400.2091979980469	 149.2379150390625	 230389.4375
19693730.0	 402.2959899902344	 129.81565856933594	 205180.578125
19693700.0	 404.0956115722656	 131.6259002685547	 210990.65625
19693672.0	 403.2678527832031	 139.66099548339844	 211703.390625
19693642.0	 400.2222595214844	 136.2965545654297	 245568.828125
19693614.0	 399.2758483886719	 133.9161834716797	 281173.15625
19693584.0	 407.8863525390625	 146.02798461914062	 225196.3125
19693556.0	 404.9423828125	 137.61782836914062	 208049.921875
19693526.0	 404.5118408203125	 137.0499267578125	 219287.71875
19693498.0	 400.8433837890625	 140.56192016601562	 238147.453125
19693466.0	 402.7721252441406	 140.71533203125	 201406.546875
19693438.0	 400.03204345703125	 144.4806365966797	 233433.703125
19693408.0	 398.663818359375	 145.76768493652344	 299094.65625
19693378.0	 401.20947265625	 132.54766845703125	 229190.0
19693350.0	 404.42437744140625	 130.46214294433594	 209218.671875
19693320.0	 395.7386779785156	 158.4593505859375	 266176.78125
19693264.0	 402.3443603515625	 132.2583465576172	 229333.046875
19693232.0	 404.2695007324219	 136.994873046875	 222416.625
19693204.0	 406.0279235839844	 127.45297241210938	 205781.015625
19693174.0	 407.2220764160156	 126.75850677490234	 214771.21875
19693146.0	 399.6761474609375	 133.2171630859375	 360040.65625
19693118.0	 407.2396545410156	 128.74359130859375	 221352.28125
19693058.0	 408.5744323730469	 124.58695220947266	 247455.640625
19692998.0	 409.046875	 132.738525390625	 334265.3125
19692970.0	 409.26220703125	 185.41561889648438	 200353.765625
19692940.0	 416.2706298828125	 165.96505737304688	 436246.0625
19692912.0	 402.6724853515625	 122.26591491699219	 248055.203125
19692884.0	 404.19525146484375	 136.97195434570312	 237369.90625
19692854.0	 397.19915771484375	 136.85806274414062	 250342.1875
19692826.0	 403.57196044921875	 156.03396606445312	 232682.59375
19692798.0	 391.8570556640625	 135.17628479003906	 230515.765625
19692766.0	 398.95697021484375	 133.01890563964844	 293605.65625
19692738.0	 401.6805725097656	 142.5884552001953	 231360.40625
19692708.0	 399.3514099121094	 150.4866485595703	 233087.375
19692678.0	 393.0914306640625	 155.75076293945312	 382622.90625
19692650.0	 399.7541198730469	 137.75631713867188	 227839.703125
19692620.0	 398.587158203125	 135.34323120117188	 233247.71875
19692592.0	 402.7003479003906	 134.1562042236328	 262085.921875
19692562.0	 405.2669372558594	 143.9678497314453	 281362.625
19692532.0	 405.1755065917969	 132.41993713378906	 324834.6875
19692474.0	 404.976806640625	 136.96401977539062	 225606.015625
19692446.0	 404.48681640625	 137.1800994873047	 260795.609375
19692418.0	 403.87066650390625	 127.53059387207031	 240705.9375
19692388.0	 402.1885986328125	 124.21817016601562	 228707.453125
19692360.0	 398.8393859863281	 129.37216186523438	 242031.609375
19692326.0	 402.26849365234375	 132.33993530273438	 264859.9375
19692298.0	 407.349609375	 135.87103271484375	 250405.140625
19692270.0	 401.7045593261719	 141.6251983642578	 242151.4375
19692240.0	 397.5876770019531	 133.38877868652344	 245895.828125
19692212.0	 402.44354248046875	 140.81170654296875	 232707.015625
19692184.0	 397.0398864746094	 145.5597381591797	 252372.125
19692154.0	 401.523681640625	 147.64840698242188	 246251.375
19692126.0	 401.2599182128906	 138.03843688964844	 255645.53125
19692094.0	 400.6922912597656	 143.87948608398438	 228852.3125
19692038.0	 397.6994934082031	 134.876708984375	 222921.734375
19692008.0	 405.9227294921875	 136.83628845214844	 308153.09375
19691978.0	 399.14874267578125	 133.58070373535156	 268289.1875
19691950.0	 398.55853271484375	 130.0400848388672	 223170.5625
19691920.0	 403.6584777832031	 163.71121215820312	 240610.828125
19691860.0	 401.7454833984375	 135.14654541015625	 238207.375
19691832.0	 414.576416015625	 182.75892639160156	 314502.25
19691804.0	 500.5694274902344	 158.4125518798828	 1180613.25
19691774.0	 490.23333740234375	 147.117919921875	 1384651.875
19691746.0	 493.52679443359375	 141.97805786132812	 927790.5625
19691716.0	 495.8572998046875	 139.6668701171875	 1191742.5
19691688.0	 481.80126953125	 147.1189727783203	 832895.4375
19691658.0	 485.64068603515625	 132.23634338378906	 631746.8125
19691628.0	 497.40362548828125	 159.14768981933594	 563606.875
19691598.0	 489.9183654785156	 135.15762329101562	 496058.46875
19691570.0	 486.66107177734375	 152.15687561035156	 611418.5625
19691540.0	 477.1006774902344	 155.8265380859375	 464447.34375
19691512.0	 464.3279113769531	 132.08229064941406	 481265.5625
19691484.0	 469.3489074707031	 142.14959716796875	 463108.6875
19691454.0	 448.8136291503906	 130.76710510253906	 339323.6875
19691426.0	 454.1545104980469	 154.33609008789062	 684597.4375
19691394.0	 477.4922790527344	 171.5654296875	 701165.5625
19691366.0	 470.9082336425781	 158.23385620117188	 985654.0625
19691336.0	 489.87158203125	 130.02862548828125	 516838.84375
19691308.0	 465.6185607910156	 135.18992614746094	 437720.78125
19691278.0	 455.8934020996094	 131.8541259765625	 430901.96875
19691250.0	 465.5467834472656	 150.3212432861328	 465517.90625
19691220.0	 439.4432373046875	 140.71644592285156	 498565.25
19691192.0	 437.71240234375	 148.20364379882812	 570667.625
19691160.0	 441.47027587890625	 153.73304748535156	 419969.78125
19691132.0	 439.2234191894531	 179.9261474609375	 665816.875
19691074.0	 445.4906005859375	 125.1561279296875	 373138.1875
19691046.0	 427.8562316894531	 133.66983032226562	 306291.1875
19691016.0	 433.6534118652344	 139.3331756591797	 429046.65625
19690988.0	 426.208251953125	 128.94874572753906	 336534.5625
19690956.0	 417.63055419921875	 143.6454315185547	 477876.5
19690928.0	 423.57110595703125	 149.3717803955078	 348860.59375
19690898.0	 419.3526306152344	 145.06822204589844	 288421.125
19690870.0	 422.263916015625	 127.8673095703125	 295848.75
19690840.0	 416.9775695800781	 130.55096435546875	 387327.75
19690812.0	 437.2921447753906	 133.1809539794922	 322241.875
19690782.0	 438.6406555175781	 132.63876342773438	 346195.53125
19690754.0	 440.1982727050781	 143.2108612060547	 403154.625
19690724.0	 420.8391418457031	 144.24427795410156	 443894.5625
19690694.0	 423.9080810546875	 140.71824645996094	 297399.40625
19690666.0	 431.7672424316406	 143.9720458984375	 317063.375
19690636.0	 433.9890441894531	 130.2183074951172	 319598.53125
19690608.0	 425.7568359375	 150.36619567871094	 291015.65625
19690578.0	 404.38818359375	 142.00949096679688	 416559.625
19690550.0	 421.4489440917969	 143.98609924316406	 304505.84375
19690520.0	 413.5323181152344	 143.77220153808594	 274377.6875
19690490.0	 413.57275390625	 151.44183349609375	 249034.46875
19690460.0	 464.6837463378906	 131.70523071289062	 424571.71875
19690432.0	 444.7381896972656	 142.71990966796875	 387991.875
19690402.0	 453.1578369140625	 127.90925598144531	 350131.8125
19690374.0	 441.4604797363281	 150.8284149169922	 409054.1875
19690344.0	 437.7994689941406	 133.64073181152344	 325828.09375
19690316.0	 437.9859313964844	 132.77621459960938	 353805.84375
19690288.0	 443.8787536621094	 140.3463897705078	 403752.5625
19690258.0	 459.19775390625	 128.70301818847656	 384035.125
19690228.0	 458.8463134765625	 141.48257446289062	 417575.75
19690198.0	 452.666015625	 134.11245727539062	 390076.25
19690170.0	 462.3790588378906	 127.18295288085938	 440269.875
19690112.0	 446.3317565917969	 137.92918395996094	 375896.8125
19690082.0	 434.3003234863281	 133.6595916748047	 406769.6875
19690052.0	 443.56707763671875	 129.13487243652344	 338729.8125
19690022.0	 425.2697448730469	 119.04578399658203	 288282.46875
19689994.0	 423.0892028808594	 145.52102661132812	 295771.03125
19689964.0	 429.2952880859375	 145.40843200683594	 343106.53125
19689936.0	 419.2984924316406	 140.8633270263672	 280291.75
19689908.0	 435.7581481933594	 141.26031494140625	 365040.65625
19689878.0	 435.3052062988281	 149.30296325683594	 552900.0625
19689850.0	 438.5238342285156	 134.66632080078125	 311270.0625
19689818.0	 461.32855224609375	 177.29669189453125	 534578.8125
19689790.0	 470.2319641113281	 139.48805236816406	 492568.28125
19689760.0	 462.88800048828125	 137.02671813964844	 495337.09375
19689732.0	 498.770751953125	 160.57943725585938	 1504593.5
19689702.0	 524.1575317382812	 135.9985809326172	 738138.25
19689674.0	 502.5319519042969	 129.9949188232422	 569477.5625
19689644.0	 463.80999755859375	 169.17965698242188	 987165.1875
19689616.0	 496.09381103515625	 130.80343627929688	 720697.375
19689584.0	 488.9255065917969	 144.3401336669922	 615657.0625
19689556.0	 506.6347961425781	 150.36224365234375	 689303.5
19689528.0	 497.80780029296875	 121.77838897705078	 498508.75
19689498.0	 457.1780090332031	 137.37074279785156	 401014.90625
19689470.0	 442.44403076171875	 147.92440795898438	 392888.75
19689440.0	 452.6780700683594	 151.61959838867188	 477925.40625
19689412.0	 454.91143798828125	 137.20777893066406	 394187.5625
19689382.0	 445.0373840332031	 142.90621948242188	 394672.59375
19689352.0	 453.3989562988281	 141.44203186035156	 408563.53125
19689322.0	 462.2237243652344	 141.3290252685547	 661957.25
19689294.0	 462.30609130859375	 130.62295532226562	 399324.96875
19689264.0	 459.0716857910156	 134.68258666992188	 440235.09375
19689236.0	 463.1686096191406	 148.01751708984375	 486911.84375
19689208.0	 450.6764221191406	 146.00967407226562	 627094.1875
19689148.0	 459.6637268066406	 149.69851684570312	 632954.8125
19689118.0	 447.3792724609375	 134.25950622558594	 690465.0
19689088.0	 459.1905517578125	 149.35658264160156	 444319.5625
19689060.0	 455.8450012207031	 130.68017578125	 370233.25
19689032.0	 451.359375	 159.1136932373047	 689199.875
19688974.0	 464.0330810546875	 149.09181213378906	 464582.65625
19688944.0	 457.1781311035156	 133.3932342529297	 448251.09375
19688914.0	 477.2474060058594	 170.6919403076172	 518261.0625
19688886.0	 467.4135437011719	 146.01585388183594	 484376.5625
19688856.0	 458.0787658691406	 145.4095916748047	 502110.09375
19688828.0	 466.6142578125	 150.279296875	 481421.8125
19688798.0	 457.2310485839844	 141.5445098876953	 769725.4375
19688770.0	 467.8158264160156	 139.16043090820312	 530107.3125
19688740.0	 476.9649658203125	 137.7360382080078	 484007.90625
19688710.0	 460.27142333984375	 142.2787628173828	 631107.875
19688680.0	 475.6562194824219	 152.5880889892578	 556628.5
19688650.0	 471.37945556640625	 136.9403076171875	 478417.21875
19688622.0	 474.0220642089844	 144.0009307861328	 524172.4375
19688594.0	 460.3371276855469	 143.1700897216797	 546139.625
19688564.0	 466.263916015625	 151.49525451660156	 502673.15625
19688536.0	 474.09552001953125	 151.5465545654297	 524388.8125
19688508.0	 468.4405822753906	 145.4276885986328	 481436.65625
19688476.0	 469.1075134277344	 148.3059539794922	 487791.03125
19688448.0	 464.70782470703125	 154.34231567382812	 584815.25
19688418.0	 457.3379821777344	 155.625244140625	 542251.875
19688390.0	 466.1520080566406	 148.13226318359375	 516764.4375
19688360.0	 464.89422607421875	 156.10885620117188	 654571.25
19688330.0	 463.49835205078125	 127.00066375732422	 440922.34375
19750020.0	 261.24334716796875	 461.673095703125	 183732.15625
19749992.0	 258.8568420410156	 482.03814697265625	 192640.734375
19749962.0	 258.8893737792969	 494.18060302734375	 190804.71875
19749930.0	 258.6119079589844	 476.6390380859375	 198449.765625
19749874.0	 261.2892150878906	 459.10693359375	 184485.46875
19749844.0	 259.7795104980469	 468.0184020996094	 186721.765625
19749814.0	 258.9954833984375	 490.2619323730469	 199029.828125
19749670.0	 259.8813171386719	 478.8736572265625	 179136.84375
19749642.0	 260.1672058105469	 482.17816162109375	 184537.265625
19749612.0	 261.65301513671875	 477.06536865234375	 180808.984375
19749582.0	 262.5497741699219	 469.6225280761719	 174795.703125
19749552.0	 264.9609069824219	 445.4947204589844	 169360.984375
19749492.0	 266.3551330566406	 434.1168518066406	 160077.578125
19749464.0	 260.7350158691406	 478.0103759765625	 172554.84375
19749436.0	 258.90533447265625	 493.82073974609375	 166805.25
19749406.0	 259.4505615234375	 489.2723388671875	 172797.265625
19749378.0	 264.267578125	 440.1585388183594	 144394.921875
19749318.0	 261.2619934082031	 463.69927978515625	 166822.296875
19749290.0	 262.62969970703125	 454.8943786621094	 167263.046875
19749260.0	 260.7645263671875	 475.7223815917969	 175840.46875
19749232.0	 257.921142578125	 499.1974792480469	 198343.265625
19749202.0	 259.5503234863281	 473.0693664550781	 176432.875
19749144.0	 258.8834533691406	 476.1817932128906	 181675.75
19749116.0	 260.3473815917969	 455.73797607421875	 179688.125
19749084.0	 262.7751770019531	 460.84039306640625	 171497.90625
19749056.0	 264.62066650390625	 450.3137512207031	 181649.40625
19749026.0	 265.8657531738281	 436.24139404296875	 168316.765625
19748998.0	 263.6786804199219	 445.540771484375	 167845.171875
19742548.0	 252.72616577148438	 544.3833618164062	 180613.71875
19734262.0	 221.44985961914062	 1158.748291015625	 123299.390625
19733212.0	 226.365234375	 870.6842041015625	 134192.75
19733092.0	 226.10887145996094	 922.4329833984375	 135261.203125
19733064.0	 225.98861694335938	 923.0780029296875	 132773.15625
19732540.0	 219.2343292236328	 1014.5205688476562	 137254.171875
19732510.0	 220.46661376953125	 978.3212890625	 139945.71875
19716022.0	 219.62191772460938	 962.5269775390625	 129940.75
19715058.0	 231.48851013183594	 1103.2117919921875	 135643.734375
19714912.0	 228.69969177246094	 985.9675903320312	 145915.03125
19713950.0	 222.2161407470703	 1158.79296875	 152732.734375
19713864.0	 219.82998657226562	 1142.957763671875	 148946.8125
19712988.0	 220.2730255126953	 1087.4293212890625	 153664.078125
19711206.0	 221.1812744140625	 1260.29248046875	 138190.875
