r [km]	 vr [km/s]	 np [cm-3]	 T [K]
20170910.0	 243.11032104492188	 510.77374267578125	 140262.15625
20159528.0	 245.44003295898438	 510.7451171875	 132559.078125
20159520.0	 242.6986541748047	 478.7086486816406	 128572.8125
20154162.0	 236.94189453125	 515.8338012695312	 126070.796875
20152138.0	 236.82968139648438	 501.2198791503906	 119286.5625
20152070.0	 235.31883239746094	 522.591552734375	 131880.921875
20150350.0	 237.81973266601562	 511.6037292480469	 129469.1953125
20149566.0	 236.91336059570312	 506.3192443847656	 121639.5546875
20148162.0	 240.47056579589844	 491.5775451660156	 121577.28125
20148154.0	 238.43772888183594	 528.834716796875	 138480.546875
20144390.0	 250.97720336914062	 527.48681640625	 145033.953125
20144348.0	 251.34523010253906	 526.4976196289062	 151192.1875
20144340.0	 255.95721435546875	 535.45751953125	 165672.390625
20144132.0	 257.19183349609375	 501.54827880859375	 161657.84375
20144124.0	 259.7267150878906	 519.7301025390625	 163911.015625
20143484.0	 251.1380615234375	 530.9091796875	 152358.609375
20143476.0	 252.62026977539062	 540.256591796875	 159838.5625
20142876.0	 250.95278930664062	 568.5056762695312	 158878.9375
20142868.0	 251.1922149658203	 547.1757202148438	 153366.015625
20142860.0	 251.81251525878906	 531.498779296875	 154955.203125
20142752.0	 242.66879272460938	 505.8583984375	 145875.109375
20142744.0	 248.23619079589844	 530.310546875	 142668.046875
20142678.0	 246.5192108154297	 557.7352905273438	 146229.671875
20142668.0	 247.01246643066406	 554.974365234375	 139784.484375
20142660.0	 244.2217559814453	 544.7551879882812	 144185.6875
20142628.0	 248.02098083496094	 547.2282104492188	 155991.40625
20142618.0	 251.13223266601562	 540.7507934570312	 147028.15625
20141688.0	 235.32077026367188	 570.2177124023438	 133803.625
20139396.0	 249.21026611328125	 553.8146362304688	 147981.046875
20139388.0	 248.545166015625	 564.0254516601562	 147408.421875
20139322.0	 245.0789337158203	 538.0645141601562	 140996.09375
20139314.0	 246.63926696777344	 556.9000854492188	 136936.25
20139272.0	 260.0162048339844	 499.8578186035156	 113390.3984375
20139222.0	 245.98001098632812	 564.5363159179688	 137511.859375
20139190.0	 247.02252197265625	 546.8640747070312	 127024.03125
20138816.0	 249.68548583984375	 514.9334716796875	 103531.6328125
20138502.0	 243.24122619628906	 558.9506225585938	 130589.765625
20138492.0	 240.5775909423828	 549.7311401367188	 128584.2109375
20138418.0	 241.7305908203125	 529.741943359375	 116498.875
20138410.0	 244.09007263183594	 557.8213500976562	 132656.875
20138360.0	 239.8110809326172	 575.66015625	 126550.2578125
20136876.0	 235.55841064453125	 524.8905639648438	 124858.4921875
20136604.0	 241.7489013671875	 557.2079467773438	 142065.125
20136480.0	 244.84413146972656	 558.2171630859375	 141620.921875
20136472.0	 244.29458618164062	 563.78173828125	 151756.1875
20136290.0	 247.73117065429688	 552.633544921875	 146217.125
20136206.0	 265.7933349609375	 537.8262329101562	 170706.78125
20136198.0	 265.2577819824219	 531.0302124023438	 162743.171875
20136190.0	 266.0080871582031	 522.358642578125	 152574.046875
20136182.0	 263.7210998535156	 518.328857421875	 160801.296875
20136174.0	 263.9915771484375	 516.6504516601562	 149610.375
20136148.0	 262.6947021484375	 532.87451171875	 154193.609375
20136116.0	 270.1484680175781	 486.81890869140625	 128247.8203125
20136090.0	 263.3439025878906	 531.684814453125	 167348.46875
20136082.0	 263.3919372558594	 548.7029418945312	 164993.125
20136074.0	 265.36114501953125	 527.4049682617188	 161018.359375
20135702.0	 262.71453857421875	 539.416015625	 158448.171875
20135694.0	 260.0724792480469	 549.9817504882812	 162300.171875
20135686.0	 260.0529479980469	 542.4742431640625	 164884.375
20135586.0	 265.1407165527344	 539.378173828125	 161521.375
20135578.0	 266.51202392578125	 527.52880859375	 166720.390625
20135478.0	 257.3591003417969	 536.71630859375	 159679.3125
20134882.0	 264.40771484375	 501.25311279296875	 150211.203125
20134874.0	 260.7679748535156	 533.0904541015625	 162816.0625
20134866.0	 258.5260009765625	 531.8781127929688	 153918.328125
20134826.0	 259.2396240234375	 553.2239379882812	 165345.828125
20134816.0	 260.1109619140625	 548.388916015625	 166926.828125
20134650.0	 261.9082946777344	 524.3875732421875	 155786.1875
20134378.0	 258.99676513671875	 543.6254272460938	 148146.21875
20133096.0	 254.72569274902344	 511.7478942871094	 151156.53125
20133088.0	 253.99139404296875	 519.73974609375	 144047.5625
20132552.0	 247.10719299316406	 499.1991882324219	 115747.234375
20132280.0	 244.525146484375	 548.2759399414062	 146666.5625
20132014.0	 249.43655395507812	 538.6044311523438	 127578.8046875
20131710.0	 248.42982482910156	 550.6495361328125	 149057.75
20131702.0	 250.63475036621094	 563.8427734375	 159514.84375
20131692.0	 250.5979766845703	 559.7478637695312	 151002.921875
20131610.0	 253.21908569335938	 537.9263916015625	 132837.375
20131090.0	 246.1846466064453	 562.1575317382812	 143282.828125
20130884.0	 244.4364013671875	 552.1101684570312	 141269.390625
20130876.0	 245.56478881835938	 535.6776123046875	 134744.28125
20130834.0	 246.72816467285156	 549.403076171875	 144787.71875
20130686.0	 263.9166564941406	 471.34100341796875	 124185.7421875
20130670.0	 259.43719482421875	 537.1976928710938	 145954.015625
20130662.0	 258.1759338378906	 539.703125	 157706.796875
20130652.0	 258.63104248046875	 538.7899169921875	 152003.734375
20130644.0	 256.49163818359375	 518.376953125	 143758.515625
20130620.0	 258.97381591796875	 515.333740234375	 130069.9609375
20130612.0	 256.4594421386719	 541.3917846679688	 148897.90625
20130602.0	 254.12384033203125	 545.5158081054688	 157941.015625
20130594.0	 255.73513793945312	 546.2174682617188	 148061.390625
20130572.0	 258.1150817871094	 534.72021484375	 153351.703125
20130562.0	 257.63128662109375	 533.9022216796875	 152832.3125
20130256.0	 258.6529846191406	 548.0966186523438	 163686.0625
20130248.0	 255.27279663085938	 544.624755859375	 155091.890625
20130092.0	 258.5313415527344	 526.9466552734375	 145983.015625
20130076.0	 256.2645263671875	 541.80419921875	 138214.484375
20130068.0	 256.27197265625	 553.2855834960938	 151097.75
20130058.0	 253.72900390625	 556.4740600585938	 152882.5
20129284.0	 255.83311462402344	 558.2042236328125	 158484.8125
20129276.0	 257.0855407714844	 545.0759887695312	 155802.609375
20129060.0	 248.11306762695312	 563.5699462890625	 144551.8125
20129054.0	 246.77964782714844	 555.0798950195312	 143893.0625
20128888.0	 256.2257385253906	 538.7193603515625	 138736.703125
20128590.0	 253.10494995117188	 535.8255615234375	 131128.875
20127760.0	 260.5520324707031	 564.2217407226562	 167633.09375
20127750.0	 263.76641845703125	 531.0362548828125	 158594.734375
20127736.0	 269.6011657714844	 532.0276489257812	 176305.609375
20127728.0	 278.86968994140625	 535.3175659179688	 197503.046875
20127438.0	 265.97515869140625	 506.53216552734375	 160385.671875
20126706.0	 268.17828369140625	 522.3659057617188	 168816.0
20126698.0	 266.3414611816406	 494.3558349609375	 150430.0625
20126648.0	 268.67095947265625	 513.0845947265625	 170692.484375
20126640.0	 273.1823425292969	 483.2829284667969	 165405.890625
20126598.0	 264.10980224609375	 500.3849182128906	 149337.125
20126566.0	 268.81060791015625	 471.72637939453125	 132981.3125
20126548.0	 270.2435607910156	 470.22576904296875	 136752.5625
20126460.0	 267.7294006347656	 516.2634887695312	 161449.78125
20126452.0	 267.9706726074219	 509.6738586425781	 170759.015625
20126386.0	 270.35784912109375	 519.8999633789062	 174391.65625
20126376.0	 273.23663330078125	 517.5516967773438	 187721.640625
20126172.0	 264.1640319824219	 495.8187255859375	 141118.0
20126162.0	 261.2668151855469	 492.25469970703125	 142940.859375
20126154.0	 259.7811584472656	 529.1178588867188	 152821.375
20126056.0	 268.0910339355469	 475.5655822753906	 138685.53125
20126006.0	 266.6689453125	 477.64697265625	 149908.375
20125998.0	 264.49688720703125	 499.28961181640625	 158934.515625
20125990.0	 266.2768859863281	 493.44219970703125	 156419.765625
20125908.0	 265.60784912109375	 517.352294921875	 164311.421875
20125900.0	 267.46630859375	 505.7919616699219	 157349.484375
20125004.0	 283.6334533691406	 458.6496276855469	 167041.8125
20124994.0	 282.1693420410156	 474.7326354980469	 167923.15625
20124978.0	 288.8392639160156	 453.0486755371094	 171486.953125
20124970.0	 289.5075988769531	 473.17352294921875	 192000.859375
20124592.0	 273.0520324707031	 478.66802978515625	 170262.65625
20124584.0	 273.89801025390625	 471.87335205078125	 161661.28125
20124550.0	 275.65447998046875	 451.9329833984375	 159289.046875
20124542.0	 271.5788269042969	 501.2316589355469	 167490.40625
20124534.0	 281.1535339355469	 452.5978088378906	 157119.921875
20124526.0	 282.2054443359375	 434.42962646484375	 165428.828125
20124518.0	 282.6468505859375	 453.62628173828125	 174702.984375
20124510.0	 283.0724182128906	 441.4803771972656	 162980.859375
20124478.0	 282.5860595703125	 447.5028381347656	 163163.421875
20124470.0	 276.74212646484375	 452.2771301269531	 157563.265625
20124462.0	 275.0224914550781	 462.5060729980469	 159701.390625
20124394.0	 270.3759460449219	 466.2908935546875	 155030.4375
20124388.0	 264.5033874511719	 499.0545959472656	 154282.71875
20124354.0	 272.0542907714844	 476.0293884277344	 148858.203125
20124346.0	 272.75738525390625	 492.2756652832031	 164818.375
20123852.0	 268.8065185546875	 475.262939453125	 153751.9375
20123846.0	 271.61083984375	 495.2149658203125	 163749.265625
20123836.0	 267.4300537109375	 454.7571105957031	 142185.296875
20123606.0	 261.4533386230469	 544.9458618164062	 170043.5
20123596.0	 263.1806640625	 493.951904296875	 149111.484375
20123590.0	 264.5384826660156	 542.866943359375	 164855.0
20123580.0	 270.3202819824219	 493.24261474609375	 163662.65625
20123548.0	 268.834228515625	 478.2852783203125	 152192.40625
20123540.0	 272.819091796875	 500.3079833984375	 159344.140625
20123500.0	 276.79150390625	 458.6884460449219	 144907.34375
20123490.0	 274.64483642578125	 458.7432861328125	 146894.5
20123482.0	 273.1593017578125	 466.8857727050781	 154834.6875
20123474.0	 282.1637878417969	 454.427001953125	 165853.328125
20123466.0	 276.8952331542969	 463.09722900390625	 165009.96875
20123426.0	 271.3868713378906	 467.697265625	 142867.875
20123418.0	 268.3038024902344	 493.9862365722656	 152459.546875
20123408.0	 268.30426025390625	 506.0116271972656	 165020.25
20122628.0	 246.62196350097656	 501.465087890625	 127872.1796875
20122302.0	 259.3041076660156	 414.9013977050781	 88238.5078125
20122284.0	 249.76947021484375	 487.4048767089844	 134058.734375
20122276.0	 251.2861785888672	 505.1689758300781	 128362.953125
20121874.0	 244.20240783691406	 564.6500854492188	 139111.09375
20121504.0	 249.4585723876953	 544.2758178710938	 135664.171875
20121496.0	 250.67843627929688	 531.4238891601562	 136361.6875
20121208.0	 246.2772674560547	 562.875244140625	 133199.46875
20121202.0	 244.26657104492188	 582.8880615234375	 142269.34375
20121194.0	 244.64047241210938	 577.9356079101562	 142113.984375
20120872.0	 248.06321716308594	 503.5319519042969	 134176.859375
20120866.0	 250.0924072265625	 486.9010314941406	 124770.015625
20120758.0	 247.9694366455078	 518.2718505859375	 132527.71875
20120750.0	 246.63967895507812	 534.1065673828125	 136918.359375
20120742.0	 252.0254669189453	 475.56329345703125	 107767.53125
20120440.0	 251.50857543945312	 521.5720825195312	 132147.40625
20120430.0	 251.43649291992188	 507.0554504394531	 138673.4375
20120422.0	 254.1776885986328	 516.7229614257812	 140526.6875
20120126.0	 254.4620819091797	 562.640625	 148481.921875
20120036.0	 256.8747863769531	 504.0405578613281	 143597.5
20120028.0	 254.85867309570312	 478.2437438964844	 128113.1328125
20119938.0	 257.97088623046875	 519.2725219726562	 144235.6875
20119930.0	 261.1148376464844	 533.6306762695312	 163330.875
20119906.0	 274.0421142578125	 444.7088928222656	 149430.1875
20119898.0	 275.7047119140625	 476.13385009765625	 165227.03125
20119880.0	 274.52410888671875	 505.5828552246094	 168323.40625
20119874.0	 279.3765563964844	 487.2282409667969	 164939.703125
20119718.0	 257.2723693847656	 512.9607543945312	 147635.140625
20119708.0	 264.28778076171875	 500.3499755859375	 153753.46875
20119686.0	 264.1432800292969	 492.2026062011719	 154468.1875
20119678.0	 263.3099060058594	 515.1665649414062	 155331.046875
20119554.0	 259.8587646484375	 500.422607421875	 149844.875
20119544.0	 263.4154052734375	 497.7325744628906	 144746.078125
20119440.0	 249.8045654296875	 513.2810668945312	 147222.25
20117890.0	 245.26895141601562	 619.614990234375	 157406.96875
20117884.0	 249.0108184814453	 557.3341064453125	 145176.09375
20117850.0	 253.98675537109375	 546.488525390625	 118729.84375
20115838.0	 242.69578552246094	 596.95703125	 143698.171875
20115830.0	 244.25050354003906	 620.6148071289062	 153221.6875
20115192.0	 246.1245880126953	 552.3746337890625	 136461.703125
20115184.0	 244.53839111328125	 546.85302734375	 129621.7421875
20115168.0	 252.27381896972656	 507.7868957519531	 107946.4921875
20114058.0	 252.67794799804688	 512.1697998046875	 131093.4375
20113910.0	 249.2841796875	 467.2325134277344	 131559.0
20113902.0	 248.3361358642578	 479.79144287109375	 139495.1875
20113894.0	 250.86001586914062	 489.8676452636719	 133182.546875
20113886.0	 254.3047332763672	 492.5270080566406	 129826.78125
20113708.0	 253.1812286376953	 449.8661193847656	 110694.234375
20113688.0	 253.2181396484375	 429.8761901855469	 132828.859375
20113420.0	 244.5912322998047	 478.6216125488281	 129275.109375
20113332.0	 248.72178649902344	 472.7075500488281	 124218.8046875
20113324.0	 251.4512939453125	 476.45367431640625	 131019.7421875
20113152.0	 261.1063232421875	 484.8852844238281	 132707.984375
20113144.0	 263.6104431152344	 474.84149169921875	 150370.390625
20113136.0	 266.130126953125	 458.2128601074219	 136187.265625
20113126.0	 263.78729248046875	 453.7357177734375	 132288.46875
20113120.0	 258.733154296875	 437.74261474609375	 129606.84375
20113110.0	 255.86224365234375	 490.85150146484375	 143174.890625
20113086.0	 253.23248291015625	 458.858642578125	 122063.2265625
20113078.0	 249.7674560546875	 467.3023986816406	 127599.5234375
20113046.0	 257.6935729980469	 474.50775146484375	 134706.28125
20113038.0	 257.4954833984375	 454.7607727050781	 127065.7109375
20113030.0	 258.22412109375	 476.0526428222656	 135077.1875
20112980.0	 261.8009948730469	 460.3681640625	 136060.21875
20112972.0	 257.8648986816406	 465.55078125	 131163.84375
20112874.0	 255.26878356933594	 467.095947265625	 123207.4375
20112866.0	 253.79928588867188	 486.9478759765625	 133504.3125
20112638.0	 255.32594299316406	 450.9454040527344	 112703.5234375
20112508.0	 251.67103576660156	 481.1543273925781	 130206.3125
20112500.0	 252.50726318359375	 471.425537109375	 129865.2265625
20112492.0	 253.04673767089844	 474.0421447753906	 132862.671875
20112482.0	 254.30943298339844	 482.20745849609375	 135317.84375
20112386.0	 252.68667602539062	 475.6788024902344	 127198.703125
20112376.0	 251.4519500732422	 497.2120666503906	 140091.78125
20112352.0	 251.41944885253906	 503.655029296875	 136657.65625
20112344.0	 250.16539001464844	 494.75848388671875	 133993.296875
20112286.0	 249.0177764892578	 493.66778564453125	 126295.765625
20112172.0	 260.4802551269531	 477.06610107421875	 143993.890625
20111764.0	 246.94200134277344	 490.8236389160156	 127812.640625
20111456.0	 249.87937927246094	 477.9969787597656	 133585.796875
20111440.0	 251.00502014160156	 484.4501953125	 123704.8359375
20111340.0	 250.50885009765625	 477.263671875	 129211.046875
20111332.0	 250.28378295898438	 473.3151550292969	 129788.015625
20111284.0	 248.01910400390625	 469.3800048828125	 124353.09375
20111276.0	 247.36231994628906	 473.941650390625	 129705.0390625
20111202.0	 258.41925048828125	 468.25140380859375	 134050.828125
20111194.0	 260.17486572265625	 484.7668762207031	 137617.640625
20111186.0	 258.5128173828125	 487.6627197265625	 131558.75
20111178.0	 256.470458984375	 473.7572937011719	 122536.1015625
20111098.0	 253.29783630371094	 463.8559265136719	 122283.8359375
20111006.0	 253.89366149902344	 443.17864990234375	 107997.5390625
20110974.0	 250.1043243408203	 453.3278503417969	 122281.8203125
20110968.0	 250.66680908203125	 460.7125244140625	 118382.390625
20110802.0	 248.54275512695312	 438.4364929199219	 109728.953125
20110796.0	 245.99449157714844	 465.3200988769531	 127307.359375
20110736.0	 248.931396484375	 459.5227355957031	 115421.15625
20110722.0	 245.69766235351562	 467.28863525390625	 121778.6640625
20110648.0	 245.5030059814453	 453.5604248046875	 117102.1328125
20110526.0	 248.87527465820312	 456.43072509765625	 116193.125
20110510.0	 247.0186309814453	 462.68121337890625	 123096.8203125
20110486.0	 249.66397094726562	 470.929931640625	 123953.53125
20110478.0	 248.97711181640625	 469.47412109375	 128701.0703125
20110414.0	 250.96554565429688	 454.9808044433594	 118109.359375
20110404.0	 250.21725463867188	 480.55242919921875	 133929.390625
20110380.0	 248.1420135498047	 441.91796875	 110088.875
20110290.0	 252.0928192138672	 447.0447082519531	 107085.2109375
20110282.0	 248.35934448242188	 465.60174560546875	 122158.671875
20110272.0	 249.17831420898438	 462.6206970214844	 120761.5625
20110160.0	 247.30746459960938	 471.4280090332031	 124366.6171875
20110152.0	 248.6663818359375	 459.3313293457031	 122939.328125
20109980.0	 244.83563232421875	 475.9595947265625	 124509.390625
20109394.0	 244.8710174560547	 462.0760192871094	 120458.9375
20109216.0	 248.39300537109375	 480.21612548828125	 125566.28125
20109118.0	 250.75181579589844	 468.3691101074219	 117369.21875
20109110.0	 249.01229858398438	 454.32037353515625	 117068.4296875
20109102.0	 248.42616271972656	 465.16021728515625	 121120.65625
20108946.0	 245.27503967285156	 463.5579833984375	 125543.9609375
20108938.0	 245.0693359375	 465.7647705078125	 123344.640625
20108856.0	 242.65122985839844	 467.1414489746094	 124175.3046875
20108848.0	 240.63629150390625	 477.3669128417969	 124822.390625
20108720.0	 242.2890167236328	 470.2173767089844	 123293.0390625
20108670.0	 244.37728881835938	 459.4676208496094	 114539.3125
20108662.0	 243.4869842529297	 477.6748962402344	 119280.453125
20108580.0	 242.7643280029297	 459.61883544921875	 122644.5078125
20108360.0	 242.5250244140625	 465.3758239746094	 119942.3828125
20108344.0	 241.86221313476562	 478.8891296386719	 122950.34375
20108256.0	 242.55259704589844	 490.55670166015625	 125323.1875
20108248.0	 242.67080688476562	 467.7679138183594	 116031.53125
20108108.0	 240.5376739501953	 458.61376953125	 120322.0234375
20108100.0	 245.74794006347656	 428.69952392578125	 99118.15625
20108062.0	 241.0925750732422	 483.02874755859375	 125129.625
20108052.0	 240.99093627929688	 484.682373046875	 126647.703125
20108044.0	 241.75057983398438	 475.92352294921875	 122276.25
20107816.0	 240.1904754638672	 469.0870361328125	 116858.0859375
20107806.0	 237.99868774414062	 476.57861328125	 121355.5546875
20107800.0	 238.4762725830078	 464.373046875	 117932.765625
20107776.0	 237.4544677734375	 495.79461669921875	 126916.4140625
20107768.0	 238.7438507080078	 477.817138671875	 124099.2109375
20107654.0	 240.02125549316406	 468.7967529296875	 121473.671875
20107638.0	 238.07778930664062	 477.5362548828125	 124055.7890625
20107604.0	 239.61244201660156	 477.42462158203125	 128562.5390625
20107596.0	 239.04473876953125	 465.250244140625	 115469.8125
20107524.0	 237.61898803710938	 472.699462890625	 118640.4140625
20107190.0	 250.45156860351562	 471.69061279296875	 125707.3046875
20107166.0	 291.3621520996094	 440.98199462890625	 180746.09375
20107158.0	 299.7533874511719	 420.8486022949219	 173064.578125
20107150.0	 302.3551940917969	 372.9457702636719	 151509.3125
20107142.0	 290.57061767578125	 377.66143798828125	 149076.453125
20107132.0	 289.37982177734375	 424.6199645996094	 160874.65625
20107126.0	 277.54498291015625	 417.5782165527344	 133565.65625
20107116.0	 272.9248046875	 365.771240234375	 114067.6015625
20107108.0	 260.4076232910156	 483.52294921875	 142427.34375
20107068.0	 262.3592529296875	 462.1181335449219	 144571.625
20107060.0	 264.8484191894531	 496.2765197753906	 152159.328125
20107052.0	 268.4507141113281	 468.6585388183594	 152784.515625
20107044.0	 259.6365966796875	 445.7325439453125	 128435.0546875
20106710.0	 252.3721160888672	 518.307373046875	 149102.28125
20106702.0	 256.6936950683594	 462.50897216796875	 140535.078125
20106532.0	 253.8806915283203	 561.033203125	 132498.484375
20106522.0	 252.63601684570312	 579.4832153320312	 154009.140625
20106516.0	 255.78713989257812	 576.1262817382812	 161664.03125
20105996.0	 261.7248229980469	 528.4678344726562	 135043.796875
20105518.0	 259.5764465332031	 517.5122680664062	 148197.125
20105508.0	 259.70654296875	 530.8673095703125	 146495.5625
20105492.0	 260.9034423828125	 509.4622497558594	 145144.734375
20105484.0	 257.642822265625	 522.060791015625	 145395.921875
20104112.0	 258.48797607421875	 497.5793151855469	 139970.5
20104104.0	 257.8211975097656	 473.8742370605469	 131428.3125
20104016.0	 256.6163330078125	 479.6723937988281	 137157.28125
20104006.0	 258.3457946777344	 492.5981750488281	 136850.359375
20103998.0	 259.17132568359375	 477.0218505859375	 133460.875
20103990.0	 261.5035400390625	 479.4961242675781	 132765.921875
20103950.0	 250.2554931640625	 477.75482177734375	 133122.984375
20103934.0	 254.3216552734375	 519.61474609375	 146316.6875
20103926.0	 262.05438232421875	 479.5724182128906	 131646.28125
20103642.0	 256.9071044921875	 498.73773193359375	 139342.078125
20103634.0	 256.0473327636719	 487.9874267578125	 128785.234375
20103626.0	 255.3693389892578	 471.5389404296875	 128563.5703125
20103602.0	 263.6016540527344	 477.2050476074219	 122028.3046875
20103584.0	 266.55419921875	 479.92510986328125	 129168.578125
20103576.0	 262.92315673828125	 471.4161376953125	 134140.21875
20103570.0	 259.674560546875	 465.9299011230469	 133205.84375
20103480.0	 254.2628173828125	 432.36114501953125	 118694.7890625
20103448.0	 261.26287841796875	 486.6925048828125	 143552.203125
20103440.0	 261.55712890625	 487.6676330566406	 134291.1875
20103430.0	 261.22552490234375	 480.1624450683594	 146018.375
20103366.0	 261.65087890625	 473.2738037109375	 137698.71875
20103358.0	 261.3614196777344	 487.4568786621094	 142030.671875
20103350.0	 259.8979187011719	 472.84210205078125	 145477.46875
20103334.0	 259.8285217285156	 488.87835693359375	 144155.5625
20103324.0	 257.6558532714844	 465.4179992675781	 135593.390625
20103300.0	 257.37451171875	 487.2518615722656	 135311.015625
20103286.0	 256.4078674316406	 481.55194091796875	 141181.171875
20103252.0	 256.0052490234375	 485.2369689941406	 139579.53125
20103244.0	 260.4423522949219	 477.6852111816406	 141476.609375
20103236.0	 263.4665832519531	 468.5536193847656	 135569.8125
20103148.0	 250.13601684570312	 542.4388427734375	 133419.421875
20103140.0	 248.06761169433594	 492.58514404296875	 126567.3359375
20102978.0	 241.95103454589844	 552.3483276367188	 150454.1875
20102870.0	 245.59170532226562	 502.78570556640625	 134515.921875
20102864.0	 244.7527618408203	 498.8594665527344	 132096.328125
20102856.0	 246.4049072265625	 516.2418212890625	 139964.796875
20102846.0	 250.75340270996094	 467.6921691894531	 126649.3984375
20102838.0	 254.3786163330078	 444.7041015625	 108422.4765625
20102808.0	 251.47999572753906	 459.7123107910156	 126107.171875
20102800.0	 248.06179809570312	 454.7225036621094	 118231.28125
20102782.0	 249.4412078857422	 474.8561706542969	 131157.203125
20102774.0	 253.27606201171875	 440.8142395019531	 108075.6484375
20102726.0	 250.65330505371094	 457.7102966308594	 121850.484375
20102718.0	 250.9153594970703	 508.815185546875	 141028.484375
20102676.0	 249.92971801757812	 464.38519287109375	 121390.703125
20102662.0	 251.34402465820312	 468.0827331542969	 123613.2578125
20102654.0	 256.9127197265625	 423.4116516113281	 98190.671875
20102644.0	 248.44876098632812	 452.8867492675781	 119728.84375
20102636.0	 246.72079467773438	 446.5293884277344	 118646.4765625
20102620.0	 248.57717895507812	 482.0340576171875	 126077.9375
20102564.0	 242.9261932373047	 486.5346374511719	 131769.3125
20102548.0	 245.99867248535156	 461.523681640625	 117444.8046875
20102466.0	 247.24951171875	 481.3598937988281	 130283.765625
20102458.0	 249.7584686279297	 493.5357666015625	 130124.2421875
20102386.0	 245.3280029296875	 473.4978942871094	 127330.015625
20102376.0	 245.25437927246094	 456.65948486328125	 121138.390625
20102368.0	 247.141357421875	 458.564453125	 119127.15625
20102304.0	 243.98851013183594	 464.9533386230469	 118597.2109375
20101834.0	 246.34288024902344	 464.2484130859375	 117024.578125
20101800.0	 248.93197631835938	 462.5137023925781	 123474.1484375
20101762.0	 252.2830047607422	 448.2289123535156	 107131.2109375
20101746.0	 247.2933349609375	 450.236572265625	 108235.4765625
20101738.0	 243.9962921142578	 480.5761413574219	 116686.7265625
20101720.0	 246.20530700683594	 480.956787109375	 123511.1328125
20101712.0	 252.05697631835938	 457.53924560546875	 105025.78125
20101704.0	 253.0972900390625	 460.9610290527344	 120584.671875
20101696.0	 251.2266082763672	 454.4046325683594	 121513.0703125
20101690.0	 253.9306182861328	 474.5046691894531	 123864.0390625
20101672.0	 250.87208557128906	 467.48431396484375	 119602.40625
20101664.0	 250.27352905273438	 464.29718017578125	 123005.8046875
20101656.0	 252.33819580078125	 464.8379821777344	 119127.34375
20101584.0	 256.0308837890625	 436.2262878417969	 95413.7734375
20101574.0	 251.69400024414062	 460.91571044921875	 123952.2109375
20101552.0	 251.1619110107422	 458.9479064941406	 124232.734375
20101544.0	 251.00338745117188	 470.3512268066406	 122118.7421875
20101470.0	 252.28656005859375	 478.19189453125	 132634.234375
20101462.0	 253.28684997558594	 482.1424255371094	 130899.5234375
20101422.0	 257.8718566894531	 456.7699279785156	 119231.5703125
20101406.0	 254.00103759765625	 471.76385498046875	 126852.0234375
20101326.0	 252.35403442382812	 469.5871887207031	 126054.9140625
20101316.0	 250.6068572998047	 529.1788330078125	 137283.984375
20101284.0	 253.6287078857422	 479.6331481933594	 139372.0625
20101276.0	 256.03778076171875	 472.487548828125	 133781.390625
20101266.0	 256.9205322265625	 445.14739990234375	 129212.796875
20101250.0	 255.61399841308594	 483.3862609863281	 143092.765625
20101242.0	 257.52716064453125	 448.82232666015625	 125604.3125
20101178.0	 257.01171875	 461.1165466308594	 126072.6484375
20101170.0	 257.0087585449219	 468.49462890625	 134511.28125
20101162.0	 253.0395050048828	 520.9366455078125	 136955.84375
20101146.0	 254.122802734375	 523.3180541992188	 142683.59375
20101138.0	 251.3494873046875	 534.8529663085938	 147937.359375
20101106.0	 260.1962585449219	 469.0302734375	 124758.4296875
20101082.0	 257.6464538574219	 475.52960205078125	 139062.296875
20101074.0	 259.1680603027344	 472.6694641113281	 141964.859375
20101018.0	 261.4353942871094	 469.3927001953125	 140664.96875
20101008.0	 260.1471252441406	 459.5630187988281	 143160.859375
20100944.0	 260.26275634765625	 444.59576416015625	 117979.5625
20100774.0	 249.72775268554688	 471.574462890625	 125815.953125
20100580.0	 256.1373596191406	 490.93963623046875	 129189.640625
20100572.0	 259.9912414550781	 478.5236511230469	 134542.828125
20100564.0	 261.75323486328125	 489.9339294433594	 132851.375
20100546.0	 262.4191589355469	 476.24908447265625	 138869.65625
20100538.0	 258.6977233886719	 555.1781616210938	 155469.234375
20100514.0	 256.139892578125	 480.69805908203125	 131135.984375
20100506.0	 257.033203125	 461.3818054199219	 130747.5859375
20100498.0	 255.8605194091797	 474.0549621582031	 122860.2421875
20100490.0	 255.28269958496094	 518.9622192382812	 138855.8125
20100432.0	 259.6342468261719	 456.4240417480469	 118221.3125
20100408.0	 254.86431884765625	 441.41156005859375	 122162.7578125
20100402.0	 253.26795959472656	 480.51904296875	 133172.78125
20100378.0	 252.9042205810547	 451.0386657714844	 119765.515625
20100370.0	 252.13963317871094	 477.3865661621094	 129773.4609375
20100272.0	 256.1587219238281	 447.74908447265625	 113125.734375
20100184.0	 255.43382263183594	 449.2184753417969	 120625.2109375
20100176.0	 257.1845703125	 450.8795166015625	 128782.8828125
20100166.0	 253.45542907714844	 503.1015930175781	 135080.59375
20100158.0	 259.2716064453125	 439.2286682128906	 101935.2890625
20100142.0	 257.1276550292969	 479.4648742675781	 132316.53125
20100134.0	 254.41506958007812	 442.9537353515625	 120231.1328125
20100126.0	 255.43865966796875	 470.6963806152344	 130475.5703125
20100102.0	 258.31390380859375	 487.16693115234375	 130687.9921875
20100094.0	 258.4634704589844	 501.36370849609375	 129152.34375
20100086.0	 260.04742431640625	 437.8783874511719	 122923.9296875
20100078.0	 255.0108642578125	 435.9310607910156	 110624.0078125
20100070.0	 254.18862915039062	 484.78057861328125	 132416.3125
20100060.0	 255.4746856689453	 467.1012878417969	 132115.703125
20100054.0	 261.0267639160156	 442.1340637207031	 108308.1015625
20100038.0	 256.3275146484375	 428.0261535644531	 110428.1640625
20099932.0	 256.93756103515625	 442.835205078125	 117323.265625
20099924.0	 256.95782470703125	 448.76824951171875	 115239.6328125
20099842.0	 250.45294189453125	 434.3336181640625	 101475.0703125
20099794.0	 250.77330017089844	 491.98675537109375	 131659.40625
20099786.0	 251.4637908935547	 467.20965576171875	 129119.90625
20099778.0	 251.2763671875	 459.31085205078125	 123457.71875
20099770.0	 252.4284210205078	 456.0129089355469	 120198.3125
20099722.0	 249.67185974121094	 470.16864013671875	 124224.421875
20099706.0	 253.57130432128906	 467.8373107910156	 118977.71875
20099690.0	 255.52757263183594	 493.333251953125	 128454.5
20099680.0	 253.01512145996094	 418.1812744140625	 112248.6015625
20099600.0	 248.81402587890625	 458.4746398925781	 114475.359375
20099592.0	 250.27935791015625	 448.0146789550781	 114095.0703125
20099414.0	 247.4048309326172	 447.8861083984375	 112363.9140625
20099066.0	 247.16131591796875	 457.3492736816406	 119777.609375
20098840.0	 245.4164276123047	 452.84808349609375	 113438.21875
20098776.0	 245.03700256347656	 465.1352233886719	 117155.28125
20098760.0	 243.2795867919922	 457.3531188964844	 116181.484375
20098582.0	 244.27586364746094	 474.1075439453125	 116388.6796875
20098574.0	 245.19007873535156	 452.8696594238281	 111196.15625
20098564.0	 244.1249542236328	 465.5928649902344	 117404.7421875
20098436.0	 244.16551208496094	 475.495849609375	 125012.640625
20098428.0	 244.4480438232422	 462.1854248046875	 115015.734375
20098316.0	 246.48065185546875	 445.5977478027344	 107356.9296875
20098306.0	 242.945068359375	 486.5335998535156	 124003.2578125
20098298.0	 244.65037536621094	 474.5879211425781	 117808.421875
20098218.0	 245.39251708984375	 447.1242980957031	 104587.4609375
20098136.0	 244.14996337890625	 455.2582702636719	 118401.234375
20098104.0	 243.25025939941406	 480.1018371582031	 124620.0625
20098096.0	 243.6822967529297	 479.2751770019531	 120819.53125
20098088.0	 246.14813232421875	 460.1270751953125	 108618.6484375
20098056.0	 246.6880645751953	 466.6037292480469	 118095.2578125
20098048.0	 244.6866912841797	 453.2247619628906	 117045.40625
20098024.0	 247.146240234375	 457.1967468261719	 117405.8828125
20097912.0	 251.9582061767578	 442.7612609863281	 104185.9609375
20097782.0	 243.8796844482422	 461.48431396484375	 118507.546875
20097772.0	 245.6130828857422	 449.9621276855469	 111947.4296875
20097708.0	 245.20098876953125	 435.05169677734375	 105188.2734375
20097700.0	 241.85321044921875	 466.06298828125	 118410.0078125
20097692.0	 244.10218811035156	 464.123046875	 113079.6171875
20097668.0	 242.63421630859375	 477.2986145019531	 120385.875
20097660.0	 242.34947204589844	 472.76666259765625	 118708.9296875
20097644.0	 243.56590270996094	 475.3161926269531	 119723.8125
20097636.0	 243.85716247558594	 467.82757568359375	 112370.9453125
20097538.0	 242.93003845214844	 473.6440734863281	 126353.1640625
20097530.0	 245.96823120117188	 449.8347473144531	 106228.546875
20097498.0	 247.5423126220703	 459.3649597167969	 113136.078125
20097490.0	 247.0244598388672	 477.43621826171875	 118865.265625
20097484.0	 249.8332061767578	 481.68701171875	 125112.5859375
20097322.0	 245.68716430664062	 470.14666748046875	 115746.59375
20097144.0	 246.10577392578125	 479.1258239746094	 118808.4609375
20097054.0	 244.76327514648438	 474.3271179199219	 119236.5
20097046.0	 243.58753967285156	 461.9300842285156	 111817.1640625
20096958.0	 246.3446807861328	 497.2882385253906	 132457.265625
20096950.0	 245.5040283203125	 473.5556335449219	 125744.390625
20096942.0	 247.07257080078125	 446.37823486328125	 109562.6875
20096804.0	 245.08859252929688	 442.7198486328125	 107442.4921875
20096796.0	 242.90036010742188	 450.4723815917969	 112849.5234375
20096788.0	 241.37095642089844	 466.0526428222656	 116819.3203125
20096780.0	 243.5269012451172	 471.95526123046875	 116151.0625
20096770.0	 246.15211486816406	 469.91937255859375	 120859.6328125
20096764.0	 245.60418701171875	 470.7753601074219	 114441.125
20096708.0	 244.4419708251953	 462.1351318359375	 113085.0078125
20096674.0	 243.62619018554688	 459.25537109375	 116802.84375
20096666.0	 243.01600646972656	 470.06927490234375	 122574.796875
20096642.0	 243.4718780517578	 464.2724609375	 115916.9921875
20096634.0	 243.84706115722656	 453.219970703125	 116671.7109375
20096578.0	 241.7287139892578	 465.67706298828125	 116579.4921875
20096464.0	 242.83203125	 455.8977966308594	 114779.9375
20096458.0	 243.51510620117188	 455.2922668457031	 115841.6484375
20096448.0	 241.30140686035156	 482.5318298339844	 125069.078125
20096328.0	 242.24456787109375	 474.71600341796875	 123069.453125
20096240.0	 241.1523895263672	 475.9820861816406	 120776.9921875
20096214.0	 241.0155792236328	 476.0215148925781	 123720.6015625
20096182.0	 243.25955200195312	 477.10723876953125	 118292.8828125
20096174.0	 245.54953002929688	 454.5810852050781	 107199.3046875
20095900.0	 245.6992645263672	 453.6634521484375	 112271.4765625
20095730.0	 241.92750549316406	 475.69415283203125	 126950.4453125
20095440.0	 242.32687377929688	 464.5627136230469	 120948.875
20095062.0	 242.62391662597656	 457.2616882324219	 118297.2578125
20094884.0	 240.55416870117188	 476.65625	 123203.46875
20094456.0	 238.2267303466797	 473.8566589355469	 112323.5390625
20091662.0	 242.9855194091797	 476.524658203125	 120726.4453125
20085470.0	 234.0204315185547	 580.7935791015625	 145059.8125
20085462.0	 238.29026794433594	 555.8103637695312	 129125.1171875
20084942.0	 235.47047424316406	 555.4916381835938	 132673.546875
20084934.0	 233.9077911376953	 569.1006469726562	 139129.671875
20084926.0	 237.40554809570312	 527.2821044921875	 113496.703125
20083574.0	 241.4868927001953	 583.7666015625	 136755.890625
20083564.0	 239.7277374267578	 565.0226440429688	 136706.984375
20082964.0	 237.3810577392578	 567.9132080078125	 134467.484375
20082140.0	 235.6497344970703	 549.5220336914062	 135695.0625
20082100.0	 238.22975158691406	 527.623046875	 118781.1953125
20081604.0	 240.9922332763672	 505.09661865234375	 115614.3671875
20081324.0	 240.70513916015625	 504.892822265625	 125317.953125
20081318.0	 239.1668243408203	 483.283935546875	 122940.4765625
20081310.0	 235.77574157714844	 473.7504577636719	 119968.9921875
20080846.0	 239.6746063232422	 507.40972900390625	 124174.015625
20080838.0	 239.6699981689453	 515.8388061523438	 127520.296875
20080598.0	 236.8459930419922	 517.0582275390625	 128239.7265625
20080232.0	 243.21592712402344	 512.64501953125	 130341.640625
20079838.0	 237.67913818359375	 482.0888977050781	 122728.7734375
20079600.0	 255.62632751464844	 440.57122802734375	 100379.6328125
20079226.0	 249.2835693359375	 525.0070190429688	 135318.59375
20078938.0	 246.02796936035156	 551.1143798828125	 136697.59375
20078930.0	 246.20896911621094	 558.1138305664062	 139286.4375
20078706.0	 250.46592712402344	 536.2570190429688	 126487.1875
20077980.0	 241.8233184814453	 540.8257446289062	 126756.34375
20077382.0	 240.1710968017578	 525.6599731445312	 129744.4453125
20076896.0	 239.74673461914062	 546.2431030273438	 128854.265625
20076802.0	 241.62200927734375	 566.1847534179688	 128449.5
20076794.0	 240.8594970703125	 557.3572387695312	 131743.53125
20074396.0	 234.0631561279297	 579.5586547851562	 126491.2265625
20045922.0	 270.3428955078125	 756.5422973632812	 174131.25
20045916.0	 286.6979675292969	 519.1314086914062	 135863.984375
20045908.0	 284.03118896484375	 539.1702270507812	 167078.953125
20045900.0	 296.01953125	 537.7509155273438	 166402.375
20045876.0	 277.40435791015625	 529.6348266601562	 132433.578125
20045868.0	 274.9071044921875	 570.4442138671875	 130809.4375
20045860.0	 272.34503173828125	 592.6918334960938	 146821.03125
20045854.0	 279.98980712890625	 601.0755615234375	 140226.421875
20045844.0	 282.9514465332031	 538.44189453125	 145060.53125
20045836.0	 286.7367248535156	 558.5838623046875	 145689.078125
20045822.0	 281.0758361816406	 515.1197509765625	 138213.671875
20045814.0	 283.9046630859375	 549.0498046875	 147225.453125
20045806.0	 286.0246887207031	 557.41455078125	 137551.828125
20045798.0	 285.65020751953125	 504.0113830566406	 139496.78125
20045790.0	 277.4765319824219	 535.1919555664062	 132076.921875
20045782.0	 275.9200439453125	 543.2196044921875	 136004.359375
20045776.0	 279.8583679199219	 570.261474609375	 143058.234375
20045768.0	 276.8988037109375	 530.7648315429688	 125039.296875
20045760.0	 273.2210693359375	 570.9427490234375	 142564.84375
20045750.0	 275.4267883300781	 540.8123168945312	 131320.03125
20045744.0	 271.5773010253906	 535.63232421875	 117999.6171875
20045736.0	 276.42877197265625	 594.4058837890625	 151759.234375
20045730.0	 285.90850830078125	 531.3523559570312	 146808.0
20045720.0	 279.9372863769531	 501.3798828125	 118012.6953125
20045714.0	 280.3946838378906	 548.9189453125	 139560.40625
20045698.0	 270.4132385253906	 605.1044311523438	 137767.71875
20045690.0	 263.9462890625	 547.3980102539062	 123889.6015625
20045680.0	 268.63507080078125	 638.2450561523438	 160821.90625
20045674.0	 269.7585754394531	 569.7205810546875	 128714.6875
20045664.0	 268.9938049316406	 592.038330078125	 136881.765625
20045658.0	 274.69696044921875	 502.5340881347656	 116046.78125
20045650.0	 269.8284912109375	 588.9432983398438	 143019.75
20045642.0	 275.6496276855469	 620.8021240234375	 164225.765625
20045634.0	 273.4908142089844	 533.2951049804688	 123543.21875
20045628.0	 259.7262878417969	 538.21240234375	 105455.7578125
20045612.0	 238.75758361816406	 614.5806274414062	 117372.9453125
20045604.0	 231.92926025390625	 653.6909790039062	 128638.640625
20044528.0	 235.88206481933594	 723.30029296875	 130670.453125
20044520.0	 237.4325714111328	 694.0665283203125	 126690.15625
20044512.0	 236.2720947265625	 691.6389770507812	 119266.703125
20044504.0	 232.15660095214844	 751.2749633789062	 127851.375
20043274.0	 233.5828399658203	 665.1134643554688	 104262.8515625
20038596.0	 242.48240661621094	 732.316162109375	 120220.9375
20038580.0	 244.36717224121094	 712.235107421875	 118983.28125
20038574.0	 243.98211669921875	 707.2442626953125	 119735.046875
20038564.0	 242.79595947265625	 749.746826171875	 129207.3125
20038512.0	 240.51235961914062	 785.4072875976562	 128543.484375
20038504.0	 240.43646240234375	 793.5093994140625	 135785.484375
20038496.0	 244.210693359375	 740.39697265625	 119185.2109375
20038488.0	 239.75936889648438	 792.6311645507812	 128384.8515625
20038480.0	 240.7587890625	 777.3030395507812	 123796.09375
20038470.0	 239.32618713378906	 766.6395263671875	 124092.53125
20038464.0	 239.36256408691406	 792.0592041015625	 127610.046875
20038456.0	 239.66183471679688	 776.6828002929688	 125285.3515625
20038450.0	 241.4842529296875	 742.2489013671875	 120331.8515625
20038402.0	 256.48199462890625	 730.23486328125	 130123.5
20038394.0	 254.39988708496094	 734.7841186523438	 124157.5390625
20038372.0	 246.37728881835938	 852.19287109375	 136084.03125
20038362.0	 247.05758666992188	 750.5321655273438	 128910.9296875
20038354.0	 245.08938598632812	 778.8268432617188	 129188.0078125
20038348.0	 251.2274932861328	 767.5911865234375	 123821.9765625
20038340.0	 249.35086059570312	 735.0482177734375	 125898.3828125
20038332.0	 249.23243713378906	 742.9686279296875	 127025.4375
20038324.0	 247.0725555419922	 779.2730712890625	 131355.296875
20038318.0	 254.85910034179688	 884.3237915039062	 153437.25
20038308.0	 264.90008544921875	 755.1782836914062	 127288.75
20038300.0	 262.2287292480469	 727.8143920898438	 125073.8125
20038294.0	 261.03765869140625	 815.1510620117188	 144273.671875
20038286.0	 260.8039855957031	 795.0505981445312	 125543.09375
20038278.0	 261.9378356933594	 771.2259521484375	 124866.0
20038270.0	 263.2172546386719	 752.5399169921875	 122931.859375
20038248.0	 268.63983154296875	 754.7582397460938	 134006.59375
20038240.0	 264.8691101074219	 712.3799438476562	 123369.625
20038232.0	 256.0390930175781	 749.97607421875	 122270.59375
20038224.0	 263.08306884765625	 760.331298828125	 130156.4609375
20038216.0	 263.927734375	 778.4332275390625	 131408.28125
20038208.0	 266.8581848144531	 725.686767578125	 127291.8671875
20038200.0	 262.799560546875	 732.5964965820312	 119196.984375
20038192.0	 260.75299072265625	 757.1116943359375	 125573.046875
20038184.0	 262.0259704589844	 792.72216796875	 132014.828125
20038178.0	 268.67095947265625	 738.5115966796875	 125883.671875
20038170.0	 271.1626281738281	 719.4818115234375	 129642.1875
20038146.0	 252.32164001464844	 805.3629760742188	 133638.09375
20038138.0	 255.93902587890625	 801.8475341796875	 131011.671875
20038122.0	 262.8686218261719	 832.9252319335938	 141712.203125
20038116.0	 269.1205139160156	 682.9058837890625	 124865.1484375
20038100.0	 250.70330810546875	 770.8639526367188	 132400.265625
20038090.0	 245.14788818359375	 712.3431396484375	 123062.6953125
20038084.0	 252.4258575439453	 782.9373779296875	 134308.96875
20038076.0	 250.4033660888672	 742.0670166015625	 132437.5625
20038070.0	 250.92767333984375	 766.7825317382812	 127473.40625
20038062.0	 250.7769012451172	 793.5357055664062	 137147.0625
20038054.0	 250.67433166503906	 743.11767578125	 134034.4375
20038046.0	 252.8722686767578	 748.5301513671875	 131181.0625
20038038.0	 253.49476623535156	 783.32568359375	 142421.6875
20038030.0	 247.655029296875	 780.6592407226562	 134700.140625
20038022.0	 253.3547821044922	 795.620361328125	 142759.859375
20038014.0	 254.55711364746094	 806.0714721679688	 131813.46875
20038008.0	 253.77464294433594	 796.0394897460938	 136438.171875
20037998.0	 260.2126159667969	 741.3701171875	 135045.421875
20037990.0	 255.80401611328125	 780.1491088867188	 130137.09375
20037984.0	 256.91864013671875	 728.38037109375	 124919.1171875
20037976.0	 257.69818115234375	 707.3265380859375	 134904.703125
20037968.0	 258.888427734375	 810.193359375	 137402.703125
20037960.0	 259.24920654296875	 772.99609375	 138870.921875
20037952.0	 261.6836853027344	 734.6618041992188	 130651.984375
20037944.0	 259.9781799316406	 706.5243530273438	 137508.03125
20037936.0	 260.1242980957031	 715.133544921875	 131428.453125
20037930.0	 259.3026123046875	 725.6724243164062	 130308.5234375
20037920.0	 257.3297424316406	 762.1318969726562	 135701.40625
20037914.0	 254.688232421875	 759.38720703125	 121901.2734375
20037904.0	 248.05047607421875	 719.6767578125	 121234.6640625
20037898.0	 252.55218505859375	 763.8079833984375	 131289.53125
20037890.0	 253.0625762939453	 758.1600341796875	 127936.765625
20037882.0	 254.28146362304688	 781.8630981445312	 134547.859375
20037868.0	 251.6794891357422	 757.8012084960938	 127651.4765625
20037860.0	 249.9368438720703	 772.7203369140625	 130369.421875
20037852.0	 250.93141174316406	 774.1800537109375	 134035.15625
20037842.0	 249.3283233642578	 764.0076904296875	 129738.453125
20037836.0	 250.8682403564453	 801.26611328125	 126524.2109375
20037828.0	 250.6113739013672	 797.6377563476562	 132396.921875
20037820.0	 252.50006103515625	 790.9715576171875	 129365.90625
20037812.0	 251.19322204589844	 787.1754150390625	 129492.5546875
20037806.0	 253.79006958007812	 745.8235473632812	 121895.296875
20037798.0	 252.66720581054688	 757.2052001953125	 126227.296875
20037790.0	 254.20713806152344	 764.7545776367188	 134352.421875
20037782.0	 253.6114959716797	 749.7063598632812	 120468.2890625
20037774.0	 254.22608947753906	 765.5046997070312	 131053.125
20037766.0	 251.90333557128906	 745.6234741210938	 133355.734375
20037758.0	 252.7919158935547	 757.4576416015625	 121834.84375
20037750.0	 251.702392578125	 780.6521606445312	 133315.6875
20037744.0	 254.8746337890625	 751.75634765625	 125234.6484375
20037734.0	 253.91854858398438	 740.4649658203125	 134925.15625
20037726.0	 255.27452087402344	 738.2222900390625	 135068.578125
20037720.0	 254.883544921875	 747.5387573242188	 146260.0625
20037712.0	 256.3908386230469	 721.9242553710938	 139116.09375
20037704.0	 256.3946228027344	 737.109619140625	 136787.75
20037696.0	 255.92047119140625	 723.1068115234375	 137251.671875
20037688.0	 256.227294921875	 731.0341186523438	 140566.890625
20037682.0	 255.39926147460938	 733.493408203125	 138277.21875
20037674.0	 255.9478302001953	 711.9188842773438	 132151.953125
20037666.0	 256.25152587890625	 744.2598266601562	 142140.203125
20037658.0	 252.9362030029297	 795.2515869140625	 147212.796875
20037650.0	 255.1180419921875	 733.2741088867188	 136699.765625
20037642.0	 254.34397888183594	 736.9495849609375	 138536.40625
20037634.0	 255.66993713378906	 749.6142578125	 140049.15625
20037626.0	 255.84979248046875	 743.1675415039062	 133013.375
20037612.0	 249.6533203125	 732.3192749023438	 124351.21875
20037604.0	 254.0467529296875	 764.9542236328125	 132242.390625
20037596.0	 253.55783081054688	 777.1603393554688	 137618.234375
20037588.0	 249.34205627441406	 724.3863525390625	 121798.7890625
20037580.0	 249.37196350097656	 794.3838500976562	 139783.421875
20037572.0	 249.5342559814453	 771.85302734375	 138947.421875
20037566.0	 251.16224670410156	 716.1635131835938	 123737.75
20037556.0	 252.65359497070312	 750.6923828125	 132035.3125
20037550.0	 254.15834045410156	 769.0743408203125	 135193.34375
20037540.0	 248.42901611328125	 745.73779296875	 120609.8125
20037534.0	 243.6270294189453	 836.0445556640625	 144032.390625
20037526.0	 247.30746459960938	 799.2268676757812	 131945.03125
20037518.0	 246.8374481201172	 774.1095581054688	 133304.5
20037510.0	 248.10598754882812	 730.6185302734375	 137860.359375
20037504.0	 246.90611267089844	 804.9334716796875	 139836.1875
20037496.0	 247.7841033935547	 772.0360107421875	 131869.90625
20037488.0	 250.6060791015625	 745.42529296875	 138913.875
20037478.0	 251.24691772460938	 741.43994140625	 142099.25
20037472.0	 250.29576110839844	 731.33203125	 137322.609375
20037464.0	 250.27626037597656	 730.5745239257812	 132128.21875
20037456.0	 248.05210876464844	 737.8374633789062	 138074.765625
20037448.0	 246.82009887695312	 745.0455932617188	 135379.59375
20037442.0	 246.3968505859375	 739.8001098632812	 132914.390625
20037434.0	 247.45773315429688	 724.5904541015625	 135578.703125
20037426.0	 244.9398651123047	 760.2631225585938	 137763.09375
20037418.0	 246.1226348876953	 800.7485961914062	 129814.109375
20037400.0	 239.16091918945312	 803.8065795898438	 133312.328125
20037394.0	 243.65142822265625	 779.431396484375	 126783.765625
20037386.0	 242.64315795898438	 753.8021850585938	 139759.34375
20037380.0	 242.5546875	 809.244873046875	 131398.1875
20037370.0	 242.5898895263672	 779.6045532226562	 136544.296875
20037348.0	 243.5335693359375	 752.62109375	 134367.125
20037340.0	 245.4554901123047	 739.6095581054688	 135832.875
20037332.0	 244.36737060546875	 762.6028442382812	 137251.203125
20037324.0	 244.63018798828125	 746.052490234375	 136022.21875
20037316.0	 245.12704467773438	 757.7277221679688	 137108.703125
20037308.0	 248.1359405517578	 733.6790161132812	 132167.9375
20037302.0	 242.72227478027344	 755.5136108398438	 129717.796875
20037292.0	 242.5548858642578	 757.0465698242188	 136281.796875
20037286.0	 241.254638671875	 743.5250854492188	 133906.046875
20037270.0	 243.16415405273438	 741.0037841796875	 133526.09375
20037262.0	 243.02317810058594	 754.2788696289062	 137534.53125
20037254.0	 243.2987060546875	 756.1295776367188	 133604.21875
20037246.0	 243.47952270507812	 741.3790283203125	 142862.203125
20037240.0	 244.337890625	 736.0303344726562	 133394.03125
20037232.0	 245.74325561523438	 744.1190185546875	 125447.078125
20037224.0	 243.81825256347656	 783.0381469726562	 130569.859375
20037216.0	 246.38262939453125	 759.718505859375	 141033.734375
20037208.0	 245.13485717773438	 751.3745727539062	 137264.25
20037200.0	 244.51541137695312	 746.8115234375	 134663.53125
20037192.0	 243.0158233642578	 742.0703125	 136738.234375
20037170.0	 245.8554229736328	 737.2412719726562	 133499.078125
20037162.0	 244.91029357910156	 757.0443115234375	 137426.8125
20037154.0	 244.11441040039062	 745.5621948242188	 133820.171875
20037146.0	 244.75282287597656	 741.6990966796875	 131476.609375
20037138.0	 243.21389770507812	 775.4161987304688	 128577.2734375
20037130.0	 240.14048767089844	 767.4437255859375	 127793.3984375
20037122.0	 241.8046112060547	 796.7559814453125	 132852.78125
20037114.0	 242.05267333984375	 779.07177734375	 131411.5625
20037092.0	 244.68641662597656	 773.1155395507812	 126934.5625
20037084.0	 240.068115234375	 810.3616943359375	 130438.7421875
20037076.0	 242.66543579101562	 826.034912109375	 136141.8125
20037070.0	 242.92250061035156	 800.8822631835938	 124355.453125
20037060.0	 235.96192932128906	 816.3379516601562	 129834.1953125
20037052.0	 240.4014892578125	 783.4685668945312	 117718.4375
20037046.0	 238.31739807128906	 801.6798095703125	 128221.203125
20037038.0	 237.3116912841797	 846.9459838867188	 132192.265625
20037030.0	 237.28472900390625	 842.4813232421875	 136485.140625
20037022.0	 242.6833038330078	 774.8775634765625	 123874.0
20037014.0	 237.05633544921875	 790.3304443359375	 127181.8828125
20036984.0	 242.8288116455078	 801.8379516601562	 127793.96875
20036976.0	 236.7839813232422	 805.2753295898438	 120367.6015625
20036930.0	 241.44871520996094	 802.5232543945312	 124804.4453125
20036898.0	 240.71669006347656	 799.2342529296875	 126202.9140625
20036890.0	 244.8251495361328	 805.5046997070312	 128271.828125
20036882.0	 242.76556396484375	 827.7655029296875	 129291.703125
20036876.0	 236.95054626464844	 806.4776000976562	 122136.9765625
20036866.0	 239.74000549316406	 873.5444946289062	 149759.421875
20036860.0	 243.52362060546875	 805.7098999023438	 131144.546875
20036836.0	 245.98092651367188	 803.4120483398438	 125532.5625
20036828.0	 244.82749938964844	 826.59765625	 131440.28125
20036820.0	 244.24246215820312	 821.8621215820312	 131268.21875
20036814.0	 246.0054473876953	 807.3397216796875	 123931.140625
20036806.0	 246.3180389404297	 813.402587890625	 131962.671875
20036798.0	 247.7301788330078	 801.2274169921875	 126355.109375
20036790.0	 244.8160400390625	 779.834228515625	 120587.078125
20036782.0	 242.84457397460938	 835.7553100585938	 132458.5625
20036774.0	 245.5867156982422	 812.6085815429688	 124432.6171875
20036766.0	 246.94879150390625	 831.4115600585938	 139870.125
20036758.0	 248.2538604736328	 788.1971435546875	 126900.734375
20036750.0	 251.4897918701172	 870.2142333984375	 140166.0625
20036742.0	 249.96136474609375	 792.4467163085938	 124692.4921875
20036736.0	 247.7120819091797	 848.1806030273438	 135523.796875
20036726.0	 241.56214904785156	 775.673095703125	 119128.0859375
20036720.0	 257.076904296875	 848.2529907226562	 150032.78125
20036712.0	 258.152587890625	 776.2235717773438	 118741.046875
20036704.0	 250.47434997558594	 792.2869262695312	 128110.2734375
20036696.0	 249.57662963867188	 816.6922607421875	 127469.375
20036690.0	 248.11044311523438	 775.7631225585938	 121617.6171875
20036682.0	 246.61473083496094	 820.3250732421875	 133101.53125
20036674.0	 248.9645233154297	 827.1536254882812	 137904.75
20036666.0	 247.1330108642578	 775.7662963867188	 122043.203125
20036658.0	 247.87713623046875	 771.7941284179688	 118219.84375
20036650.0	 246.07894897460938	 835.3994750976562	 137661.96875
20036642.0	 248.07020568847656	 810.265380859375	 129766.734375
20036634.0	 252.6786651611328	 788.9411010742188	 128269.4296875
20036626.0	 254.09312438964844	 803.8967895507812	 127568.5859375
20036620.0	 254.45440673828125	 854.737548828125	 142132.0
20036612.0	 253.22576904296875	 808.99658203125	 121660.6171875
20036602.0	 252.96139526367188	 815.0464477539062	 130975.9296875
20036588.0	 249.29653930664062	 786.7348022460938	 125827.8515625
20036580.0	 242.49851989746094	 737.1898193359375	 111838.5703125
20036572.0	 241.33111572265625	 820.9970703125	 124322.328125
20036564.0	 241.40567016601562	 877.4081420898438	 131327.171875
20036556.0	 237.19325256347656	 850.0474853515625	 128121.390625
20036078.0	 242.15301513671875	 810.9384765625	 131809.40625
20036070.0	 242.4296875	 779.78515625	 128044.296875
20036062.0	 240.10531616210938	 841.5150756835938	 132530.546875
20036054.0	 248.0683135986328	 781.4170532226562	 117966.1171875
20036046.0	 242.02867126464844	 852.1282348632812	 138932.171875
20036038.0	 248.13563537597656	 868.41357421875	 146565.71875
20036032.0	 257.81683349609375	 788.8405151367188	 136614.328125
20036022.0	 257.94549560546875	 780.5047607421875	 133657.15625
20036016.0	 252.47433471679688	 758.6707153320312	 128677.71875
20036006.0	 248.63015747070312	 747.0494384765625	 119217.1015625
20036000.0	 243.0139923095703	 778.9896850585938	 119065.6171875
20035992.0	 246.6239013671875	 840.9569091796875	 134068.25
20035984.0	 249.35076904296875	 843.3677368164062	 140223.9375
20035976.0	 247.38986206054688	 815.1453247070312	 132801.796875
20035970.0	 249.53062438964844	 789.9009399414062	 130515.53125
20035960.0	 248.92347717285156	 793.605224609375	 126564.890625
20035954.0	 245.9586181640625	 807.7957763671875	 130811.484375
20035946.0	 248.736083984375	 797.031005859375	 128241.0
20035938.0	 246.2917938232422	 899.4660034179688	 142139.8125
20035930.0	 244.89491271972656	 795.20654296875	 121508.6015625
20035922.0	 251.4642333984375	 804.8257446289062	 132520.3125
20035914.0	 248.6063995361328	 779.7326049804688	 122578.8671875
20035906.0	 248.48223876953125	 798.489501953125	 128443.5390625
20035900.0	 249.60618591308594	 829.4903564453125	 134655.921875
20035892.0	 250.93203735351562	 806.08447265625	 135386.265625
20035884.0	 253.2576446533203	 795.886474609375	 129236.1796875
20035876.0	 251.876708984375	 796.680908203125	 131927.8125
20035868.0	 252.90243530273438	 815.20556640625	 140314.390625
20035860.0	 257.46490478515625	 810.5015258789062	 146918.5625
20035852.0	 255.92161560058594	 749.5682983398438	 121073.625
20035846.0	 252.5436553955078	 801.606201171875	 139167.8125
20035836.0	 244.65106201171875	 793.5468139648438	 128463.0859375
20035814.0	 247.145751953125	 792.1621704101562	 129660.9609375
20035806.0	 249.7876434326172	 798.4020385742188	 129295.640625
20035798.0	 250.3382110595703	 797.88720703125	 132418.125
20035790.0	 245.0475311279297	 798.6176147460938	 132908.609375
20035784.0	 252.54322814941406	 764.8201904296875	 128537.5390625
20035774.0	 247.86732482910156	 787.9976196289062	 131632.5625
20035768.0	 247.09593200683594	 782.5027465820312	 130279.8203125
20035758.0	 248.62442016601562	 750.5266723632812	 121506.65625
20035752.0	 239.00047302246094	 776.1497802734375	 123439.6015625
20035744.0	 232.4259490966797	 721.328857421875	 101557.2890625
20035666.0	 241.78298950195312	 1024.5452880859375	 178371.0625
20035658.0	 255.81430053710938	 793.330322265625	 133343.65625
20035650.0	 255.07492065429688	 844.8682861328125	 146466.5625
20035644.0	 251.34959411621094	 720.3299560546875	 118552.578125
20035636.0	 247.88352966308594	 796.041748046875	 137255.4375
20035628.0	 248.46896362304688	 758.8338012695312	 121234.0
20035620.0	 239.5846710205078	 786.2153930664062	 117147.7265625
20035604.0	 241.81251525878906	 847.5549926757812	 124010.8671875
20035520.0	 235.45481872558594	 780.2936401367188	 120932.7109375
20035512.0	 234.66329956054688	 833.2559204101562	 129474.390625
20035504.0	 234.84042358398438	 798.3185424804688	 120665.7421875
20035428.0	 239.37649536132812	 835.055908203125	 123208.4765625
20035420.0	 234.90109252929688	 855.4074096679688	 137559.25
20035412.0	 235.9800262451172	 789.9886474609375	 124181.5625
20035396.0	 240.93431091308594	 834.6986083984375	 128207.40625
20035388.0	 238.8959197998047	 806.0912475585938	 128597.9296875
20035380.0	 240.7705078125	 921.99609375	 147417.5625
20035372.0	 236.2725372314453	 878.9182739257812	 141602.78125
20035364.0	 239.5719451904297	 818.3465576171875	 130238.1953125
20035356.0	 241.12124633789062	 828.0453491210938	 128195.125
20035350.0	 237.0379180908203	 811.2022094726562	 124140.9140625
20035342.0	 244.26805114746094	 803.6598510742188	 126313.7109375
20035334.0	 240.72897338867188	 778.70947265625	 118236.90625
20035326.0	 240.27001953125	 852.8687133789062	 132259.0625
20035302.0	 243.67868041992188	 772.4425048828125	 124400.640625
20035296.0	 244.12899780273438	 839.8670654296875	 137185.46875
20035286.0	 243.04031372070312	 809.5400390625	 130563.375
20035280.0	 238.1283721923828	 789.406005859375	 127193.421875
20035272.0	 236.19007873535156	 895.729248046875	 146890.515625
20035264.0	 239.6631622314453	 777.4417114257812	 122876.015625
20035258.0	 241.89089965820312	 795.14794921875	 132155.609375
20035248.0	 239.24801635742188	 822.2906494140625	 130361.9921875
20035240.0	 238.1375732421875	 820.3132934570312	 133442.625
20035234.0	 239.39410400390625	 834.0049438476562	 135789.078125
20035226.0	 239.20606994628906	 792.4703369140625	 119112.21875
20035186.0	 247.6282196044922	 793.4869384765625	 110528.453125
20035178.0	 241.7852325439453	 748.8392944335938	 112399.7265625
20035172.0	 242.73947143554688	 848.6997680664062	 138249.359375
20035164.0	 243.607177734375	 839.41748046875	 137679.796875
20035156.0	 243.7828826904297	 787.0450439453125	 122441.6328125
20035148.0	 240.27455139160156	 904.9534301757812	 142553.578125
20035140.0	 245.7802276611328	 748.637939453125	 105992.53125
20035126.0	 232.62948608398438	 846.3023071289062	 133094.21875
20035110.0	 245.40647888183594	 905.6478271484375	 135897.40625
20035100.0	 250.96067810058594	 680.3057250976562	 108934.2734375
20035094.0	 239.73153686523438	 864.3621215820312	 140245.796875
20035086.0	 245.2744140625	 858.9148559570312	 140251.171875
20035078.0	 253.7770538330078	 779.808349609375	 130927.59375
20035070.0	 250.58364868164062	 792.7443237304688	 126485.0703125
20035056.0	 249.37939453125	 737.0332641601562	 120433.578125
20035048.0	 243.93382263183594	 817.0804443359375	 132892.8125
20035040.0	 246.50790405273438	 799.9329833984375	 134396.203125
20035032.0	 248.2783660888672	 786.98095703125	 135084.109375
20035024.0	 247.62161254882812	 792.052978515625	 140381.953125
20035016.0	 249.84170532226562	 795.3939819335938	 134693.328125
20035008.0	 248.2600860595703	 779.824462890625	 130444.71875
20035000.0	 249.10520935058594	 776.8026123046875	 133956.953125
20034992.0	 248.5874481201172	 793.571044921875	 135368.5625
20034986.0	 248.3125762939453	 812.3569946289062	 137983.1875
20034978.0	 249.7398223876953	 792.8154296875	 135775.578125
20034970.0	 248.80694580078125	 798.8155517578125	 134834.828125
20034962.0	 249.9669647216797	 804.8583374023438	 137343.546875
20034956.0	 249.11976623535156	 794.9501342773438	 134749.671875
20034946.0	 251.12753295898438	 788.2944946289062	 136127.765625
20034940.0	 250.40435791015625	 806.16162109375	 136618.0
20034932.0	 248.2438507080078	 805.9785766601562	 134273.765625
20034924.0	 254.0242462158203	 752.7288208007812	 132127.453125
20034916.0	 250.5765380859375	 744.734130859375	 118040.3125
20034908.0	 252.3140411376953	 836.1586303710938	 151799.328125
20034900.0	 255.43377685546875	 762.6015014648438	 132760.203125
20034894.0	 255.12408447265625	 803.4927978515625	 140587.640625
20034870.0	 250.20619201660156	 799.9354858398438	 131941.953125
20034862.0	 247.4077606201172	 847.171630859375	 134730.1875
20034854.0	 248.51158142089844	 779.0953369140625	 130821.9140625
20034846.0	 248.8504638671875	 832.45703125	 142722.796875
20034838.0	 250.2906951904297	 811.2666015625	 137825.484375
20034830.0	 250.643310546875	 802.9368896484375	 131997.59375
20034822.0	 250.52487182617188	 786.8447875976562	 127477.0
20034816.0	 252.1812286376953	 793.0584716796875	 137666.15625
20034800.0	 254.30552673339844	 785.9766235351562	 133800.390625
20034792.0	 255.65066528320312	 822.0298461914062	 147789.53125
20034784.0	 257.9176940917969	 787.7070922851562	 135918.84375
20034778.0	 255.21983337402344	 787.5936279296875	 130526.796875
20034770.0	 253.79196166992188	 827.4920654296875	 143258.3125
20034760.0	 252.78265380859375	 836.9559326171875	 143723.90625
20034754.0	 252.1338653564453	 799.2821655273438	 134604.078125
20034746.0	 254.18594360351562	 832.1864013671875	 142604.8125
20034738.0	 252.58090209960938	 818.038330078125	 136783.5625
20034730.0	 254.462158203125	 807.2545776367188	 132965.703125
20034722.0	 252.74966430664062	 804.2798461914062	 129926.65625
20034716.0	 253.75634765625	 818.3338623046875	 138136.359375
20034708.0	 255.7766571044922	 778.6658325195312	 137076.484375
20034700.0	 254.74942016601562	 803.1802368164062	 133249.875
20034692.0	 256.2738342285156	 781.3338012695312	 129921.3046875
20034684.0	 255.37062072753906	 810.9435424804688	 138753.296875
20034676.0	 256.8117980957031	 804.3322143554688	 140878.375
20034668.0	 259.81591796875	 770.2068481445312	 133704.734375
20034660.0	 255.3172607421875	 790.9671630859375	 131465.75
20034652.0	 252.35801696777344	 747.0203857421875	 125071.03125
20034644.0	 250.7183074951172	 817.9454345703125	 134233.9375
20034638.0	 250.04344177246094	 791.0057983398438	 135796.8125
20034630.0	 253.2537078857422	 822.5955200195312	 145960.640625
20034622.0	 253.7582244873047	 801.7130737304688	 137714.8125
20034614.0	 253.76129150390625	 786.8497314453125	 129598.2890625
20034606.0	 251.78756713867188	 809.0100708007812	 133202.21875
20034598.0	 251.52488708496094	 811.9758911132812	 136912.546875
20034584.0	 250.2740020751953	 798.6435546875	 136619.703125
20034576.0	 248.66860961914062	 792.06591796875	 138500.75
20034568.0	 250.16253662109375	 818.5602416992188	 132521.03125
20034560.0	 247.39984130859375	 814.3411254882812	 125171.90625
20034544.0	 242.60299682617188	 869.51806640625	 137862.609375
20034538.0	 241.9860076904297	 867.9000854492188	 140595.953125
20034530.0	 243.59967041015625	 837.8732299804688	 133786.765625
20034522.0	 244.65386962890625	 884.0250854492188	 141931.5
20034514.0	 249.10824584960938	 808.6172485351562	 131846.96875
20034506.0	 248.67234802246094	 844.6890869140625	 133805.03125
20034498.0	 245.4789581298828	 839.84521484375	 129841.953125
20034492.0	 244.77076721191406	 859.435302734375	 135993.671875
20034482.0	 247.04173278808594	 837.3761596679688	 135607.921875
20034476.0	 248.58889770507812	 843.82373046875	 131880.25
20034466.0	 248.44728088378906	 834.6895141601562	 136158.828125
20034460.0	 246.2422637939453	 843.488037109375	 133417.3125
20034452.0	 248.80545043945312	 837.0241088867188	 138962.140625
20034444.0	 254.1667022705078	 827.6732177734375	 145296.0
20034438.0	 254.1434326171875	 819.4692993164062	 137330.375
20034430.0	 252.31744384765625	 787.5485229492188	 131176.921875
20034420.0	 246.19361877441406	 808.0540771484375	 132137.046875
20034414.0	 246.89065551757812	 837.2152099609375	 140392.890625
20034404.0	 247.80970764160156	 836.71337890625	 131423.65625
20034390.0	 246.9453582763672	 837.0599975585938	 134978.40625
20034382.0	 242.2454071044922	 818.5516357421875	 127309.75
20034374.0	 250.42483520507812	 827.8463134765625	 136741.9375
20034366.0	 247.19056701660156	 845.4376220703125	 133218.28125
20034358.0	 243.59312438964844	 834.1350708007812	 130924.4375
20034352.0	 248.0911407470703	 801.2322387695312	 130511.4921875
20034344.0	 247.15284729003906	 825.2855834960938	 132177.171875
20034336.0	 249.814453125	 801.7573852539062	 135963.0
20034328.0	 248.69720458984375	 806.1681518554688	 139965.34375
20034320.0	 251.80137634277344	 807.5476684570312	 142705.140625
20034312.0	 250.91268920898438	 788.72802734375	 135132.84375
20034282.0	 256.4900817871094	 774.08154296875	 125625.640625
20034274.0	 250.55426025390625	 843.4622802734375	 143672.453125
20034266.0	 252.8296356201172	 817.9779663085938	 136762.109375
20034244.0	 251.5011749267578	 852.666015625	 146894.828125
20034234.0	 248.56199645996094	 764.0211181640625	 125947.015625
20034228.0	 244.9498748779297	 823.7176513671875	 135253.5625
20034220.0	 243.80494689941406	 856.552978515625	 143365.1875
20034196.0	 244.78350830078125	 870.70654296875	 146526.515625
20034190.0	 246.81564331054688	 818.1543579101562	 137501.625
20034180.0	 252.14385986328125	 814.6002807617188	 141779.953125
20034174.0	 250.2147979736328	 809.7666625976562	 134050.359375
20034166.0	 246.0946502685547	 827.3802490234375	 135533.34375
20034158.0	 247.25601196289062	 841.37744140625	 143948.75
20034150.0	 246.11973571777344	 823.8483276367188	 131897.40625
20034142.0	 256.1489562988281	 766.4218139648438	 132021.75
20034134.0	 244.09335327148438	 782.5687866210938	 119827.328125
20034112.0	 241.16827392578125	 894.5591430664062	 148718.203125
20034104.0	 238.13778686523438	 825.0330200195312	 129308.296875
20034094.0	 243.961669921875	 821.2449340820312	 138785.375
20034088.0	 249.52383422851562	 832.1824340820312	 143409.046875
20034080.0	 249.6842803955078	 805.6521606445312	 137369.90625
20034072.0	 243.65771484375	 814.58447265625	 128574.265625
20034066.0	 246.35536193847656	 877.8967895507812	 150553.265625
20034058.0	 251.46144104003906	 802.8532104492188	 137639.765625
20034028.0	 248.18801879882812	 858.939453125	 143528.609375
20034018.0	 248.22352600097656	 844.38427734375	 139219.171875
20034010.0	 248.6458740234375	 807.2258911132812	 130885.5234375
20034002.0	 244.263671875	 844.3785400390625	 140691.8125
20033996.0	 241.02352905273438	 785.2144775390625	 118894.7421875
20033988.0	 240.3867950439453	 863.0322265625	 146229.828125
20033982.0	 244.2068634033203	 790.660888671875	 130321.953125
20033972.0	 245.672119140625	 827.9955444335938	 134140.71875
20033966.0	 243.33824157714844	 837.7099609375	 137984.390625
20033956.0	 242.72129821777344	 835.9547119140625	 140252.53125
20033950.0	 240.55067443847656	 816.8994140625	 129022.3671875
20033926.0	 240.4549102783203	 837.211669921875	 134814.265625
20033918.0	 241.61502075195312	 830.9783325195312	 137939.921875
20033910.0	 240.7943115234375	 856.3065795898438	 140834.65625
20033902.0	 241.53729248046875	 863.6953735351562	 141017.3125
20033894.0	 244.57948303222656	 860.1788330078125	 142450.40625
20033888.0	 247.8948516845703	 846.462646484375	 137890.953125
20033880.0	 247.04710388183594	 843.1422729492188	 135889.296875
20033872.0	 247.8644256591797	 858.0497436523438	 146617.15625
20033864.0	 249.58114624023438	 786.4910888671875	 127601.78125
20033856.0	 247.92526245117188	 824.825439453125	 136429.828125
20033848.0	 247.8197479248047	 879.8916625976562	 144050.140625
20033842.0	 250.30552673339844	 853.8106689453125	 135210.0
20033832.0	 249.99913024902344	 811.9152221679688	 132014.4375
20033826.0	 247.6669464111328	 811.9027099609375	 133377.703125
20033816.0	 246.48486328125	 850.3889770507812	 139860.265625
20033810.0	 247.25119018554688	 832.7633056640625	 137913.359375
20033804.0	 249.09768676757812	 822.3341674804688	 135225.125
20033794.0	 251.79200744628906	 848.0794677734375	 143863.625
20033780.0	 250.4486541748047	 785.2796630859375	 135628.4375
20033770.0	 247.552490234375	 854.748046875	 142432.21875
20033764.0	 248.28233337402344	 839.86181640625	 134065.953125
20033756.0	 246.73045349121094	 848.2859497070312	 136506.59375
20033748.0	 249.7682647705078	 817.6502685546875	 135979.296875
20033740.0	 249.66766357421875	 814.6688232421875	 141600.671875
20033732.0	 251.25546264648438	 765.2001953125	 140021.75
20033718.0	 249.03182983398438	 798.9639282226562	 141838.0625
20033710.0	 250.5620574951172	 788.3225708007812	 141891.359375
20033702.0	 251.98309326171875	 794.9528198242188	 147067.453125
20033694.0	 253.93209838867188	 771.4926147460938	 143169.390625
20033524.0	 248.60195922851562	 788.489013671875	 153053.4375
20033518.0	 249.4126739501953	 791.8062133789062	 139762.671875
20033508.0	 247.85086059570312	 803.83203125	 143415.8125
20033500.0	 247.43641662597656	 779.31640625	 142869.734375
20033492.0	 246.270751953125	 800.0128173828125	 140196.984375
20033462.0	 243.841064453125	 825.4931030273438	 142126.0
20033454.0	 243.26553344726562	 854.833251953125	 147783.703125
20033446.0	 248.9979705810547	 794.1734008789062	 143961.5625
20033440.0	 247.96939086914062	 792.462646484375	 141809.734375
20033432.0	 248.691162109375	 795.6954345703125	 138940.140625
20033424.0	 247.5399627685547	 782.1539306640625	 137158.734375
20033376.0	 246.5153045654297	 877.4090576171875	 136570.671875
20033370.0	 247.93748474121094	 848.5028686523438	 138361.296875
20033362.0	 249.55569458007812	 871.3336181640625	 135086.46875
20033354.0	 248.50918579101562	 848.3099365234375	 135557.75
20033346.0	 249.0083770751953	 861.3505249023438	 138993.3125
20033338.0	 249.4561767578125	 857.3718872070312	 139271.15625
20033332.0	 248.75677490234375	 858.9542236328125	 138102.546875
20033324.0	 250.2943572998047	 862.420166015625	 135063.34375
20033300.0	 247.55039978027344	 899.3934936523438	 143073.921875
20033292.0	 246.94741821289062	 878.7620239257812	 135468.59375
20033284.0	 248.72344970703125	 863.7670288085938	 136933.515625
20033268.0	 248.1077117919922	 871.5856323242188	 135395.515625
20033262.0	 248.0987548828125	 890.4959106445312	 141274.359375
20033254.0	 249.40963745117188	 868.9853515625	 134236.234375
20033246.0	 248.5672607421875	 811.9166870117188	 131427.734375
20033238.0	 257.3306579589844	 628.2150268554688	 149769.265625
20033198.0	 241.58169555664062	 794.486328125	 135037.40625
20033190.0	 240.6470947265625	 847.3400268554688	 154688.125
20033176.0	 237.35325622558594	 803.608154296875	 145222.421875
20033168.0	 242.1860809326172	 721.0830078125	 147441.9375
20033162.0	 247.59983825683594	 666.9441528320312	 164597.609375
20033152.0	 250.8725128173828	 683.863525390625	 161664.84375
20033146.0	 242.07931518554688	 486.92230224609375	 108694.9765625
20033138.0	 255.39393615722656	 472.239990234375	 137641.40625
20033130.0	 255.1219024658203	 485.7076721191406	 160677.015625
20033038.0	 254.9705352783203	 494.6255798339844	 151836.578125
20033028.0	 258.357421875	 466.54205322265625	 140192.03125
20033014.0	 255.8446502685547	 506.1329345703125	 161875.796875
20033006.0	 260.0930480957031	 451.1185607910156	 149247.0625
20032960.0	 259.9349365234375	 461.7240905761719	 142132.109375
20032952.0	 263.50396728515625	 437.9599304199219	 147361.765625
20032944.0	 262.3873596191406	 466.2565002441406	 150016.140625
20032936.0	 265.5725402832031	 450.7520751953125	 148051.1875
20032928.0	 263.6524353027344	 461.577880859375	 146854.828125
20032920.0	 262.9413146972656	 453.67266845703125	 150365.6875
20032898.0	 261.15966796875	 462.3284606933594	 145959.5625
20032890.0	 257.9020080566406	 476.0270080566406	 152324.734375
20032882.0	 261.5602722167969	 487.2450256347656	 152327.4375
20032820.0	 259.74951171875	 503.0951232910156	 135422.234375
20032814.0	 260.19976806640625	 467.2291564941406	 153481.15625
20032806.0	 254.7211151123047	 497.28839111328125	 155268.15625
20032596.0	 263.7389221191406	 446.77435302734375	 146974.453125
20032588.0	 263.8368835449219	 434.4802551269531	 143084.390625
20032566.0	 257.0780944824219	 467.9945068359375	 148126.0
20032558.0	 259.4659729003906	 450.86895751953125	 132015.078125
20032466.0	 251.96737670898438	 495.2060546875	 161473.625
20032458.0	 255.2851104736328	 487.7951354980469	 148219.953125
20032380.0	 251.65574645996094	 541.864990234375	 163030.6875
20032372.0	 256.00372314453125	 489.968505859375	 158711.796875
20032242.0	 254.2373504638672	 553.9680786132812	 175270.28125
20032058.0	 235.938720703125	 769.9064331054688	 167179.359375
20032048.0	 237.68386840820312	 737.6087036132812	 148459.5
20031986.0	 247.98666381835938	 699.3941040039062	 152932.390625
20030798.0	 252.69000244140625	 461.4499206542969	 147168.578125
20030782.0	 254.5629425048828	 483.1581115722656	 154559.9375
20030776.0	 253.1801300048828	 456.1788024902344	 140004.21875
20030736.0	 259.2702941894531	 462.1854553222656	 154177.4375
20030690.0	 259.56005859375	 477.0281066894531	 147675.15625
20030682.0	 262.4115295410156	 479.47802734375	 155142.1875
20030652.0	 264.20220947265625	 463.3546447753906	 150587.046875
20030590.0	 265.8641052246094	 518.4007568359375	 146494.09375
20030582.0	 254.0970001220703	 619.8230590820312	 140775.75
20030520.0	 248.641357421875	 727.52294921875	 164863.8125
20030512.0	 250.3026123046875	 712.005615234375	 156193.140625
20030506.0	 250.07318115234375	 708.0877685546875	 152991.28125
20030452.0	 251.96034240722656	 689.742431640625	 150119.671875
20030404.0	 266.27923583984375	 547.8819580078125	 171167.984375
20030396.0	 266.60272216796875	 530.44287109375	 154379.53125
20030320.0	 259.5218811035156	 676.8886108398438	 161636.953125
20030280.0	 259.28753662109375	 654.1928100585938	 154088.546875
20030274.0	 258.23333740234375	 669.7202758789062	 153576.078125
20030266.0	 258.2308349609375	 670.8965454101562	 163898.578125
20030204.0	 259.8719787597656	 653.3838500976562	 151833.078125
20030196.0	 260.39251708984375	 670.9464721679688	 149668.96875
20030188.0	 259.5356140136719	 665.781005859375	 152772.859375
20030152.0	 256.00909423828125	 649.8880004882812	 147940.671875
20030142.0	 255.6434783935547	 689.62353515625	 159151.15625
20030134.0	 255.9761962890625	 683.9659423828125	 154085.890625
20030128.0	 254.09434509277344	 679.6235961914062	 158268.546875
20030120.0	 253.52964782714844	 702.4019165039062	 161549.25
20030104.0	 254.00013732910156	 722.4464721679688	 167033.390625
20030096.0	 254.0919647216797	 731.8499145507812	 173674.578125
20030034.0	 255.56410217285156	 717.9247436523438	 156706.734375
20030018.0	 256.9800109863281	 619.3565063476562	 134452.671875
20030012.0	 253.92022705078125	 663.548583984375	 146202.546875
20030004.0	 253.24098205566406	 671.6993408203125	 148381.828125
20029980.0	 250.2149200439453	 679.2250366210938	 147333.046875
20029934.0	 251.61776733398438	 699.029541015625	 161383.75
20029926.0	 249.33346557617188	 684.905517578125	 153393.796875
20029872.0	 250.2442626953125	 680.6071166992188	 144563.4375
20029866.0	 251.99583435058594	 661.0758056640625	 141155.65625
20029850.0	 249.72134399414062	 680.7537231445312	 141778.53125
20029842.0	 249.42515563964844	 668.0009155273438	 144538.046875
20029834.0	 248.45530700683594	 684.92138671875	 144238.140625
20029772.0	 247.5016632080078	 703.2486572265625	 143392.859375
20029764.0	 248.24176025390625	 696.3598022460938	 159456.796875
20029756.0	 249.16810607910156	 693.3624877929688	 141382.75
20029742.0	 247.83984375	 675.2679443359375	 135727.859375
20029728.0	 247.0646514892578	 706.0626220703125	 150564.328125
20029718.0	 251.45596313476562	 671.9675903320312	 132281.46875
20029712.0	 247.23458862304688	 702.1987915039062	 148578.484375
20029704.0	 248.94540405273438	 697.2343139648438	 148561.65625
20029672.0	 246.14080810546875	 701.2094116210938	 152658.890625
20029664.0	 246.6588134765625	 692.03173828125	 141274.265625
20029634.0	 245.67196655273438	 709.7545166015625	 147828.71875
20029626.0	 245.70497131347656	 673.2431030273438	 141293.890625
20029620.0	 243.58450317382812	 713.3003540039062	 147373.734375
20029610.0	 243.17352294921875	 728.5654296875	 150530.4375
20029572.0	 242.88613891601562	 727.2391967773438	 143193.46875
20028624.0	 236.42074584960938	 684.8861083984375	 172604.8125
20028616.0	 238.42063903808594	 681.4464111328125	 168127.015625
20028486.0	 252.0332489013672	 434.78033447265625	 129764.09375
20028478.0	 250.27450561523438	 447.52044677734375	 135564.90625
20027954.0	 240.98667907714844	 707.9876098632812	 148480.25
20027908.0	 240.84324645996094	 695.3374633789062	 131648.5
20027878.0	 274.64642333984375	 743.9264526367188	 216346.625
20027262.0	 278.1455078125	 596.4007568359375	 142201.265625
20027254.0	 275.66070556640625	 617.5250244140625	 152416.265625
20027246.0	 281.8597106933594	 607.5885620117188	 166302.984375
20027238.0	 283.056396484375	 651.887939453125	 160549.359375
20027222.0	 286.7088317871094	 614.7620239257812	 146111.84375
20027200.0	 288.3192443847656	 593.7758178710938	 153401.9375
20027194.0	 289.0762023925781	 624.5377197265625	 160954.234375
20027178.0	 287.7220764160156	 609.47265625	 164820.453125
20027108.0	 284.7947998046875	 630.0997314453125	 150312.296875
20027100.0	 280.7082824707031	 635.1975708007812	 165584.78125
20026984.0	 280.65655517578125	 599.3400268554688	 159261.484375
20026978.0	 277.43731689453125	 605.1472778320312	 165321.25
20026900.0	 288.4384765625	 613.0221557617188	 148521.40625
20026892.0	 292.6358947753906	 635.3623657226562	 160282.65625
20026886.0	 286.97442626953125	 619.0733642578125	 147385.328125
20026846.0	 287.8310852050781	 591.008544921875	 144500.671875
20026840.0	 298.02642822265625	 650.9693603515625	 178210.046875
20026808.0	 276.1840515136719	 669.90478515625	 145123.5
20026800.0	 275.33380126953125	 625.2089233398438	 140175.71875
20026792.0	 275.75396728515625	 644.4756469726562	 138825.328125
20026784.0	 274.6037902832031	 702.4796752929688	 151350.140625
20026740.0	 273.7801513671875	 645.0912475585938	 138238.65625
20026730.0	 271.1119689941406	 662.5429077148438	 145823.25
20026724.0	 272.3754577636719	 666.5352783203125	 148543.546875
20026716.0	 279.0130615234375	 648.9306640625	 153551.109375
20026708.0	 271.5750732421875	 694.8706665039062	 149032.59375
20026684.0	 267.74591064453125	 665.2116088867188	 142220.75
20026678.0	 262.6175842285156	 707.0172729492188	 145960.921875
20026670.0	 265.3076477050781	 700.8626098632812	 149647.90625
20026592.0	 257.90765380859375	 661.8544921875	 124617.890625
20026584.0	 261.4388427734375	 664.8663940429688	 133589.40625
20026576.0	 254.70277404785156	 819.8439331054688	 175381.0
20026554.0	 256.0350036621094	 667.3969116210938	 131288.015625
20026546.0	 259.37860107421875	 632.3906860351562	 130720.1015625
20026538.0	 259.6531677246094	 696.1754760742188	 153213.125
20026532.0	 256.5481872558594	 669.404541015625	 137895.078125
20026514.0	 255.74127197265625	 699.2064208984375	 152440.171875
20026508.0	 257.0679626464844	 683.881591796875	 142828.296875
20026386.0	 249.2881622314453	 691.4086303710938	 144256.90625
20026378.0	 247.2128143310547	 715.1785278320312	 160749.078125
20026346.0	 241.1676025390625	 729.196533203125	 156822.546875
20026338.0	 240.1959991455078	 752.3558959960938	 160844.03125
20026224.0	 243.45822143554688	 741.1201171875	 159958.375
20026216.0	 246.3069610595703	 720.4345092773438	 159643.34375
20026086.0	 243.69590759277344	 662.98291015625	 136637.9375
20026078.0	 244.25819396972656	 688.277587890625	 149714.21875
20026046.0	 242.39109802246094	 725.46728515625	 142452.078125
20026030.0	 243.30752563476562	 714.2783813476562	 150279.625
20026024.0	 245.42379760742188	 675.7606201171875	 142490.328125
20026016.0	 246.55255126953125	 636.7529296875	 131630.09375
20026008.0	 245.29788208007812	 687.3785400390625	 147332.484375
20025878.0	 256.7188415527344	 677.0144653320312	 152195.640625
20025870.0	 258.608642578125	 689.25439453125	 168042.15625
20025732.0	 246.0001983642578	 710.1597290039062	 154227.796875
20025724.0	 243.71339416503906	 716.2427368164062	 149172.515625
20025716.0	 246.16163635253906	 740.71044921875	 151799.328125
20025616.0	 242.93148803710938	 737.2774047851562	 144563.296875
20025608.0	 241.87124633789062	 744.8555908203125	 149700.890625
20025548.0	 241.9698486328125	 737.33984375	 151625.90625
20025540.0	 243.01307678222656	 738.381591796875	 150757.265625
20025524.0	 242.58160400390625	 719.5194091796875	 145347.46875
20025518.0	 244.25564575195312	 707.0311279296875	 146918.171875
20025500.0	 241.77593994140625	 735.148193359375	 146262.359375
20025494.0	 241.5347442626953	 727.2250366210938	 148731.015625
20025486.0	 241.35450744628906	 738.6162109375	 149193.0
20025416.0	 240.44485473632812	 741.8180541992188	 152921.703125
20025408.0	 240.36708068847656	 744.224609375	 153289.25
20025400.0	 242.2757568359375	 723.3107299804688	 138962.671875
20025232.0	 235.64195251464844	 804.4226684570312	 157981.453125
20025224.0	 238.25872802734375	 796.8466796875	 171893.53125
20025062.0	 253.2540283203125	 694.6346435546875	 161652.046875
20025056.0	 253.1848602294922	 699.9766235351562	 158442.46875
20025016.0	 257.3653259277344	 680.938232421875	 164802.1875
20024870.0	 256.0008239746094	 611.3944702148438	 131275.140625
20024786.0	 252.06704711914062	 698.8255004882812	 162941.390625
20024778.0	 255.00601196289062	 663.3494262695312	 154090.171875
20024772.0	 252.62594604492188	 687.8339233398438	 157812.71875
20024762.0	 253.71910095214844	 692.3478393554688	 158687.328125
20024756.0	 254.24908447265625	 691.7444458007812	 157573.625
20024732.0	 256.38433837890625	 677.35498046875	 155167.609375
20024710.0	 254.5084228515625	 723.3014526367188	 164243.5625
20024702.0	 256.4305725097656	 683.0447387695312	 161451.4375
20024694.0	 260.33807373046875	 656.3671264648438	 159192.859375
20023398.0	 229.313232421875	 663.4992065429688	 128292.5390625
20022178.0	 242.3168487548828	 661.6239624023438	 144082.5
20012066.0	 240.26174926757812	 634.1738891601562	 143096.234375
20012060.0	 243.01622009277344	 643.74609375	 151838.15625
20011816.0	 230.96018981933594	 704.1160278320312	 150287.671875
20011808.0	 240.29969787597656	 663.78955078125	 147705.984375
20009460.0	 238.29478454589844	 573.7261352539062	 156702.640625
20009444.0	 240.0888214111328	 553.553955078125	 146897.828125
20009438.0	 236.89273071289062	 581.4546508789062	 157991.140625
20008276.0	 238.57835388183594	 591.5693969726562	 160211.234375
20008268.0	 239.35409545898438	 598.5610961914062	 161100.390625
20008260.0	 241.3379669189453	 584.5062866210938	 168587.0625
20008048.0	 230.2349090576172	 677.260986328125	 146630.609375
20008040.0	 233.2760772705078	 619.7626953125	 131448.53125
20007600.0	 243.0487060546875	 550.1085815429688	 132363.03125
20007592.0	 244.931640625	 554.29052734375	 139004.015625
19913584.0	 245.615234375	 468.5890197753906	 192261.953125
19913282.0	 245.34710693359375	 375.3082275390625	 144800.671875
19913274.0	 242.4717254638672	 370.7192077636719	 142706.015625
19913246.0	 248.43431091308594	 351.16949462890625	 149974.265625
19910612.0	 261.126220703125	 354.7798767089844	 139107.859375
19910474.0	 254.921142578125	 395.6808166503906	 175838.21875
19909536.0	 253.7369842529297	 317.60107421875	 183753.265625
19908858.0	 253.1841583251953	 434.4787292480469	 211876.25
19902722.0	 258.1259765625	 438.91290283203125	 185863.765625
19902276.0	 253.90040588378906	 389.49945068359375	 173180.046875
19902270.0	 261.00921630859375	 394.3118896484375	 163825.1875
19893324.0	 264.157958984375	 362.50579833984375	 181096.09375
19845380.0	 236.240234375	 487.452880859375	 140320.609375
19845374.0	 239.966064453125	 500.3199768066406	 142560.953125
20013642.0	 264.6808166503906	 1158.9371337890625	 150249.4375
20013648.0	 265.09613037109375	 1117.706787109375	 140527.609375
20013658.0	 263.3663635253906	 1151.12890625	 150821.421875
20016852.0	 268.7693786621094	 1132.842041015625	 140626.734375
20017592.0	 267.45330810546875	 1182.4705810546875	 158656.546875
20017602.0	 269.4154357910156	 1159.34423828125	 147521.890625
20018264.0	 270.4170837402344	 1174.3502197265625	 145288.078125
20018272.0	 270.57745361328125	 1169.611083984375	 143844.1875
20018318.0	 269.7575378417969	 1165.07958984375	 144033.734375
20018326.0	 269.6517028808594	 1175.919921875	 144730.234375
20018380.0	 269.672119140625	 1172.03271484375	 139827.203125
20018386.0	 271.3427429199219	 1170.5889892578125	 138380.953125
20018396.0	 270.7633361816406	 1170.406982421875	 138922.1875
20018402.0	 270.9089050292969	 1181.216796875	 139549.765625
20020982.0	 267.1180725097656	 1162.1568603515625	 146279.5625
20020988.0	 267.0197448730469	 1155.961669921875	 140109.640625
20021110.0	 267.70684814453125	 1138.734619140625	 137755.046875
20021120.0	 268.1639099121094	 1135.8328857421875	 137385.296875
20021302.0	 268.3461608886719	 1144.5709228515625	 135462.828125
20021334.0	 267.73248291015625	 1147.2811279296875	 135271.46875
20021342.0	 267.619873046875	 1148.784912109375	 136599.84375
20021348.0	 268.4481506347656	 1149.8009033203125	 130939.3828125
20021356.0	 270.7733459472656	 1094.2330322265625	 114962.6640625
20021364.0	 268.4314880371094	 1148.20654296875	 128273.96875
20021372.0	 268.3643798828125	 1144.51611328125	 129444.8515625
20021380.0	 268.0358581542969	 1141.859375	 127480.6953125
20021388.0	 268.502197265625	 1128.4117431640625	 127542.3515625
20021396.0	 268.8494567871094	 1133.3179931640625	 131216.421875
20021402.0	 268.9742431640625	 1147.5377197265625	 134503.171875
20021426.0	 269.40478515625	 1138.5537109375	 129762.9296875
20021432.0	 267.7319030761719	 1152.805419921875	 138293.078125
20021442.0	 271.2010192871094	 1100.1923828125	 117081.578125
20021450.0	 267.4678955078125	 1161.8389892578125	 140726.265625
20021570.0	 268.6111145019531	 1145.0963134765625	 125333.0234375
20021578.0	 268.53509521484375	 1139.9462890625	 128353.6640625
20021586.0	 270.8230895996094	 1106.696044921875	 114105.484375
20021594.0	 268.5653381347656	 1138.7525634765625	 128567.390625
20021604.0	 270.8534240722656	 1096.5062255859375	 114015.828125
20021610.0	 268.547119140625	 1141.52978515625	 127970.359375
20021618.0	 268.48974609375	 1145.5174560546875	 128177.9921875
20021624.0	 268.8667907714844	 1146.169677734375	 127016.6484375
20021648.0	 268.8672180175781	 1145.105224609375	 126079.9921875
20021654.0	 268.05950927734375	 1168.5572509765625	 132539.609375
20021662.0	 268.10662841796875	 1152.7242431640625	 132011.328125
20021672.0	 268.18267822265625	 1155.9229736328125	 131674.28125
20021678.0	 268.0122375488281	 1147.1636962890625	 130794.078125
20021688.0	 270.92529296875	 1109.71630859375	 118618.90625
20021692.0	 268.20513916015625	 1147.653564453125	 135868.75
20021702.0	 268.2879943847656	 1161.153076171875	 136207.4375
20021708.0	 268.057373046875	 1167.5980224609375	 135704.546875
20021718.0	 268.63116455078125	 1151.06787109375	 134714.359375
20021724.0	 268.6495056152344	 1152.8226318359375	 135929.4375
20021732.0	 268.94830322265625	 1157.996826171875	 131486.0625
20021740.0	 269.30377197265625	 1172.4248046875	 132439.453125
20021746.0	 269.8232421875	 1149.2513427734375	 128612.515625
20021770.0	 268.2977600097656	 1156.3526611328125	 134346.6875
20021778.0	 268.5516357421875	 1139.186767578125	 131434.421875
20021786.0	 270.7291564941406	 1105.71923828125	 120766.84375
20021792.0	 267.2923583984375	 1136.103515625	 141041.828125
20022084.0	 269.514892578125	 1130.7847900390625	 131739.625
20022092.0	 268.0694274902344	 1150.7373046875	 144322.1875
20022102.0	 267.9698181152344	 1163.6959228515625	 142921.0625
20022246.0	 271.0362548828125	 1145.02294921875	 136910.078125
20022254.0	 270.30303955078125	 1131.9505615234375	 135144.125
20022284.0	 270.57098388671875	 1156.333251953125	 138898.28125
20022330.0	 270.37548828125	 1185.2723388671875	 146788.484375
20022338.0	 269.9925537109375	 1175.2825927734375	 145870.828125
20022376.0	 270.5996398925781	 1148.994384765625	 139788.109375
20022384.0	 273.6031188964844	 1111.080078125	 125413.609375
20022398.0	 272.9436340332031	 1131.1158447265625	 130244.8046875
20022414.0	 273.01611328125	 1126.308837890625	 131005.5703125
20022422.0	 271.22625732421875	 1157.8353271484375	 139755.375
20022430.0	 270.1589660644531	 1180.4110107421875	 146071.21875
20022438.0	 270.551513671875	 1159.0406494140625	 139628.6875
20022444.0	 270.09930419921875	 1160.2249755859375	 142075.34375
20022452.0	 268.845458984375	 1155.2086181640625	 139964.5625
20022460.0	 271.5852966308594	 1107.45068359375	 123081.9296875
20022468.0	 269.0508728027344	 1145.250244140625	 136764.390625
20022492.0	 268.8098449707031	 1132.67138671875	 135944.140625
20022546.0	 269.2525939941406	 1134.23291015625	 135092.0625
20022552.0	 268.6550598144531	 1152.967041015625	 144379.40625
20022560.0	 272.15484619140625	 1096.27783203125	 124816.1796875
20022576.0	 271.53948974609375	 1087.514892578125	 120834.1953125
20022582.0	 268.80780029296875	 1135.790283203125	 138514.796875
20022592.0	 271.20220947265625	 1082.1932373046875	 122539.453125
20022598.0	 268.3870849609375	 1129.071533203125	 137728.78125
20022606.0	 268.577392578125	 1131.9580078125	 136780.390625
20022614.0	 269.0452575683594	 1129.9058837890625	 133859.5
20022622.0	 268.74029541015625	 1114.5244140625	 132675.453125
20022820.0	 271.80889892578125	 1091.91552734375	 119530.15625
20022882.0	 269.52880859375	 1134.2574462890625	 136180.453125
20022890.0	 268.89208984375	 1152.125	 144113.6875
20022898.0	 269.6817626953125	 1131.0926513671875	 134487.9375
20022938.0	 269.6896667480469	 1149.550048828125	 137522.828125
20022944.0	 271.11883544921875	 1143.5294189453125	 136420.421875
20022968.0	 270.2236328125	 1128.55029296875	 129856.859375
20022974.0	 270.0811462402344	 1142.508056640625	 136133.109375
20022982.0	 270.7732238769531	 1142.0540771484375	 136740.484375
20022988.0	 270.2417907714844	 1140.457763671875	 136924.328125
20022998.0	 273.0425109863281	 1102.8297119140625	 119826.1875
20023004.0	 270.78509521484375	 1162.1663818359375	 138497.21875
20023012.0	 271.2259216308594	 1166.3990478515625	 139560.234375
20023026.0	 271.01995849609375	 1144.4437255859375	 137278.28125
20023036.0	 271.98077392578125	 1161.8424072265625	 138520.875
20023042.0	 273.17266845703125	 1161.8299560546875	 139645.15625
20023142.0	 272.3285217285156	 1105.56884765625	 127260.5078125
20023150.0	 269.0483093261719	 1170.201904296875	 148187.75
20026260.0	 267.8061828613281	 1197.6551513671875	 149213.796875
20026270.0	 268.2381286621094	 1199.1143798828125	 147122.25
20026276.0	 267.9461975097656	 1190.44580078125	 146013.796875
20026284.0	 267.9994812011719	 1192.075439453125	 147552.53125
20026292.0	 268.0833435058594	 1201.828857421875	 149993.015625
20026300.0	 266.95098876953125	 1213.78515625	 150476.6875
20026338.0	 267.1247253417969	 1181.22509765625	 145678.0
20026346.0	 267.52001953125	 1183.2923583984375	 145984.140625
20026354.0	 267.60498046875	 1203.8619384765625	 146909.890625
20026384.0	 265.60546875	 1177.7437744140625	 146193.421875
20031276.0	 267.8885803222656	 1095.486083984375	 127669.453125
20031382.0	 267.6639404296875	 1077.624755859375	 127474.2890625
20031454.0	 269.741943359375	 1083.3099365234375	 133071.921875
20031460.0	 269.55419921875	 1117.0899658203125	 137213.78125
20031468.0	 269.7521057128906	 1099.7191162109375	 135543.421875
20031490.0	 270.12530517578125	 1102.1148681640625	 132118.65625
20031500.0	 270.37078857421875	 1109.002197265625	 132677.6875
20031514.0	 270.5801086425781	 1100.3656005859375	 130952.4609375
20031530.0	 272.5180969238281	 1076.550048828125	 114654.640625
20031538.0	 269.5790710449219	 1105.8089599609375	 133464.875
20031546.0	 269.29547119140625	 1108.5225830078125	 134806.0
20031554.0	 268.83935546875	 1141.889404296875	 139352.625
20031560.0	 269.39019775390625	 1106.805419921875	 130081.4375
20031586.0	 268.0638122558594	 1137.8402099609375	 136826.109375
20031592.0	 268.67828369140625	 1119.6298828125	 134333.65625
20031616.0	 269.0672302246094	 1122.285888671875	 132018.21875
20031622.0	 267.9051208496094	 1141.646240234375	 137972.890625
20031632.0	 268.3734130859375	 1121.9027099609375	 133184.1875
20031638.0	 268.2639465332031	 1133.222412109375	 138845.3125
20031648.0	 267.8128356933594	 1133.47412109375	 135657.015625
20031694.0	 269.20001220703125	 1137.9583740234375	 140127.1875
20031698.0	 268.91180419921875	 1132.9132080078125	 137647.34375
20031708.0	 268.55438232421875	 1153.33642578125	 142478.09375
20031714.0	 268.4843444824219	 1146.6658935546875	 138910.03125
20031724.0	 269.3100891113281	 1125.951171875	 136210.40625
20031730.0	 268.2188720703125	 1154.1199951171875	 137344.09375
20031740.0	 271.84979248046875	 1097.198486328125	 120219.390625
20031746.0	 269.39129638671875	 1136.1488037109375	 136325.90625
20031754.0	 269.69647216796875	 1134.453857421875	 137127.09375
20031760.0	 269.9204406738281	 1129.4244384765625	 134215.703125
20031770.0	 269.8561706542969	 1129.3131103515625	 133762.703125
20031776.0	 270.0371398925781	 1136.950439453125	 136434.4375
20031786.0	 269.4372253417969	 1142.549072265625	 140217.59375
20031792.0	 270.27886962890625	 1126.5531005859375	 134559.3125
20031800.0	 269.6421813964844	 1140.026611328125	 138189.375
20031806.0	 269.3629150390625	 1140.6011962890625	 135960.453125
20031816.0	 270.64495849609375	 1157.0206298828125	 136296.6875
20031822.0	 270.43603515625	 1158.91064453125	 139025.390625
20031854.0	 270.04437255859375	 1152.2099609375	 139587.484375
20031862.0	 270.2216491699219	 1142.4337158203125	 139643.40625
20031870.0	 270.9136657714844	 1143.4403076171875	 137702.859375
20031916.0	 270.87969970703125	 1139.4573974609375	 135729.578125
20031924.0	 271.827880859375	 1149.322265625	 132520.078125
20031932.0	 270.1810302734375	 1168.93212890625	 138889.59375
20031940.0	 270.8432922363281	 1152.4293212890625	 137542.203125
20031948.0	 270.0291748046875	 1141.5657958984375	 136356.265625
20031954.0	 269.4989929199219	 1118.577880859375	 131351.421875
20031964.0	 271.5661315917969	 1143.427734375	 135306.046875
20031970.0	 271.9560241699219	 1149.103759765625	 135854.3125
20031978.0	 271.54864501953125	 1113.6873779296875	 132688.875
20031986.0	 270.6632385253906	 1113.2957763671875	 132599.0625
20031994.0	 270.5146179199219	 1116.3446044921875	 130430.53125
20032010.0	 272.88232421875	 1072.7454833984375	 119205.953125
20032016.0	 270.23175048828125	 1116.52294921875	 134544.34375
20032024.0	 270.19171142578125	 1116.7159423828125	 138213.296875
20032048.0	 272.314697265625	 1117.095703125	 132874.671875
20032056.0	 271.5855407714844	 1127.65673828125	 135298.203125
20032062.0	 270.59149169921875	 1114.0167236328125	 134015.390625
20032070.0	 271.1716613769531	 1119.5606689453125	 134144.765625
20032078.0	 271.1689147949219	 1115.3533935546875	 136492.828125
20032086.0	 271.9502868652344	 1116.021484375	 133339.53125
20032108.0	 270.7749328613281	 1126.6007080078125	 137579.671875
20032116.0	 271.001708984375	 1116.3348388671875	 134684.125
20032124.0	 270.7475891113281	 1108.5078125	 132447.84375
20032132.0	 270.2509765625	 1113.3212890625	 136140.046875
20032140.0	 269.8555603027344	 1129.5941162109375	 134610.234375
20032148.0	 273.22998046875	 1053.9586181640625	 116873.8203125
20032178.0	 270.0191650390625	 1127.6502685546875	 141225.453125
20032188.0	 270.47686767578125	 1134.203125	 138557.265625
20032194.0	 271.1104736328125	 1124.414794921875	 135151.15625
20032204.0	 270.8199157714844	 1130.2379150390625	 137983.1875
20032218.0	 271.108642578125	 1128.7586669921875	 137212.734375
20032224.0	 271.4544372558594	 1121.1651611328125	 135827.453125
20032270.0	 270.8779296875	 1115.5302734375	 134855.3125
20032280.0	 270.43353271484375	 1121.739501953125	 133450.15625
20032286.0	 270.7825622558594	 1127.1875	 135784.34375
20032296.0	 270.0787658691406	 1130.5582275390625	 139466.625
20032302.0	 271.13372802734375	 1126.0574951171875	 133021.109375
20032310.0	 271.4583740234375	 1114.066650390625	 131989.21875
20032318.0	 270.6199035644531	 1129.0423583984375	 135695.375
20032326.0	 271.115478515625	 1139.0498046875	 135557.890625
20032332.0	 271.7060852050781	 1115.7205810546875	 129413.90625
20032342.0	 271.5544738769531	 1105.6605224609375	 128330.2265625
20032348.0	 270.947265625	 1113.7337646484375	 131178.40625
20032356.0	 271.09722900390625	 1112.7593994140625	 131082.953125
20032364.0	 270.0830383300781	 1099.7376708984375	 133086.921875
20032372.0	 273.26422119140625	 1058.05029296875	 113742.265625
20032380.0	 270.0386657714844	 1100.3345947265625	 135189.5625
20032388.0	 270.5374755859375	 1101.2806396484375	 130899.375
20032394.0	 269.7689514160156	 1103.8778076171875	 133962.015625
20032402.0	 269.9126281738281	 1098.8641357421875	 129436.71875
20032440.0	 269.9587707519531	 1103.438232421875	 129136.8125
20032448.0	 269.93927001953125	 1085.9443359375	 130342.8671875
20032456.0	 268.762939453125	 1091.8154296875	 130245.75
20032464.0	 268.9604797363281	 1083.305419921875	 127477.1015625
20032472.0	 269.6629638671875	 1096.9962158203125	 130254.5078125
20032494.0	 270.3316345214844	 1137.814208984375	 142986.765625
20032502.0	 270.8207092285156	 1117.875244140625	 134891.28125
20032510.0	 272.9757080078125	 1058.356201171875	 116559.1328125
20032526.0	 271.80908203125	 1116.6949462890625	 131201.921875
20032556.0	 271.29107666015625	 1108.9776611328125	 130659.625
20032566.0	 271.09649658203125	 1105.1495361328125	 137029.265625
20032572.0	 270.8370056152344	 1106.42626953125	 144787.234375
20032604.0	 270.209228515625	 1113.888427734375	 138918.875
20032612.0	 270.0204162597656	 1088.7242431640625	 131144.140625
20032618.0	 269.364501953125	 1100.8316650390625	 136272.625
20032628.0	 273.5909729003906	 1074.5350341796875	 116239.4140625
20032634.0	 271.1943359375	 1089.5433349609375	 135847.6875
20032642.0	 270.55767822265625	 1102.5018310546875	 132191.96875
20032650.0	 269.90557861328125	 1116.717041015625	 136436.421875
20032658.0	 270.6759033203125	 1105.769775390625	 135428.859375
20032664.0	 269.8996276855469	 1112.1927490234375	 135364.015625
20032688.0	 270.4004211425781	 1085.1749267578125	 128085.3515625
20032696.0	 269.869140625	 1101.6011962890625	 131254.78125
20032704.0	 270.95098876953125	 1100.448974609375	 132163.09375
20032710.0	 273.9400329589844	 1057.3779296875	 116441.9609375
20032720.0	 270.3663635253906	 1091.285888671875	 136340.890625
20032726.0	 270.5420837402344	 1094.5953369140625	 132828.65625
20032734.0	 270.1615295410156	 1097.58056640625	 134567.859375
20032742.0	 270.7559814453125	 1109.7371826171875	 132940.0625
20032750.0	 270.2858581542969	 1102.2684326171875	 135112.546875
20032756.0	 270.8307189941406	 1093.845458984375	 132226.296875
20032766.0	 271.3712158203125	 1093.144775390625	 129792.015625
20032772.0	 270.4310607910156	 1103.406982421875	 133388.46875
20032782.0	 270.5238037109375	 1109.5009765625	 130960.546875
20032788.0	 272.5146484375	 1079.1671142578125	 121842.1171875
20032804.0	 271.0047302246094	 1086.5379638671875	 128966.75
20032812.0	 270.62298583984375	 1104.0343017578125	 130998.984375
20032818.0	 270.2875061035156	 1106.2177734375	 135289.5
20032828.0	 271.0760803222656	 1093.397705078125	 130347.6875
20032834.0	 270.4587707519531	 1100.0013427734375	 134127.375
20032842.0	 270.99609375	 1095.4659423828125	 133493.953125
20032850.0	 270.5240783691406	 1102.4075927734375	 133363.984375
20032866.0	 270.44915771484375	 1086.18994140625	 131588.109375
20032874.0	 271.2335205078125	 1087.1644287109375	 130758.609375
20032880.0	 270.5047912597656	 1079.997314453125	 127395.3515625
20032890.0	 269.53680419921875	 1076.7076416015625	 130648.5703125
20032896.0	 268.5850830078125	 1084.7083740234375	 130996.765625
20032904.0	 272.49249267578125	 1033.53173828125	 111679.03125
20032912.0	 269.3801574707031	 1087.072265625	 134821.53125
20032920.0	 270.2420349121094	 1070.409912109375	 128035.21875
20032946.0	 268.7461242675781	 1082.064453125	 130768.3046875
20033060.0	 268.580810546875	 1085.504150390625	 130642.7109375
20033130.0	 268.0136413574219	 1079.174072265625	 125790.765625
20033222.0	 266.4458923339844	 1103.230224609375	 139967.765625
20033306.0	 267.06414794921875	 1097.6707763671875	 131477.296875
20033314.0	 265.27459716796875	 1120.662841796875	 138543.3125
20033346.0	 269.4512634277344	 1060.9561767578125	 118021.171875
20033352.0	 266.37548828125	 1090.86474609375	 132806.84375
20033360.0	 268.8069763183594	 1064.606689453125	 117003.7734375
20033368.0	 265.9322814941406	 1116.220947265625	 129068.6640625
20033376.0	 268.4566955566406	 1071.943603515625	 116387.4375
20033384.0	 265.33056640625	 1125.1580810546875	 133443.5625
20033452.0	 264.73187255859375	 1131.66552734375	 135864.5
20033460.0	 264.9625244140625	 1124.639404296875	 134309.9375
20033468.0	 267.73175048828125	 1077.139892578125	 116213.140625
20033508.0	 266.26861572265625	 1099.7476806640625	 131671.640625
20087940.0	 267.41583251953125	 1191.5892333984375	 104283.8046875
20088452.0	 266.6993103027344	 1232.026123046875	 104342.9453125
20088686.0	 271.0046081542969	 1256.4547119140625	 86140.4140625
20088790.0	 270.8838806152344	 1272.1044921875	 99041.421875
20088846.0	 268.715576171875	 1212.1070556640625	 101823.7109375
20088856.0	 270.8174133300781	 1275.5718994140625	 94765.203125
20088918.0	 271.3086853027344	 1277.4305419921875	 88999.7734375
20089536.0	 270.7450866699219	 1247.4385986328125	 95343.46875
20089546.0	 270.48406982421875	 1247.7366943359375	 93307.3515625
20089554.0	 272.7734069824219	 1227.652587890625	 80516.140625
20089562.0	 270.2569274902344	 1267.0223388671875	 96610.84375
20089568.0	 270.12835693359375	 1250.33251953125	 89513.1640625
